Absorbance:209		
188.012	-0	
188.47	-0	
188.927	-0	
189.385	1.12	
189.842	0.07	
190.3	-0	
190.757	-0.1	
191.215	-0	
191.672	-0.31	
192.129	0.62	
192.586	0.33	
193.044	-0	
193.501	-0.6	
193.958	-0	
194.415	-0	
194.872	-1.3	
195.329	0.89	
195.787	0.22	
196.244	-0.07	
196.7	-0.47	
197.157	-0	
197.614	-0	
198.071	-0.46	
198.528	0.99	
198.985	0.9	
199.441	0.46	
199.898	1.31	
200.355	0.41	
200.812	0.91	
201.268	0.6	
201.725	-0	
202.181	1.07	
202.638	0.87	
203.094	1.58	
203.551	0.81	
204.007	1.11	
204.463	-0	
204.92	0.38	
205.376	0.83	
205.832	-0	
206.288	-0	
206.744	0.76	
207.201	0.47	
207.657	0.45	
208.113	0.5	
208.569	0.51	
209.025	0.53	
209.481	0.85	
209.937	0.44	
210.392	0.54	
210.848	0.94	
211.304	1.32	
211.76	0.83	
212.215	1.43	
212.671	0.87	
213.127	1.4	
213.582	-0	
214.038	0.65	
214.494	0.63	
214.949	1.23	
215.404	1.43	
215.86	1.14	
216.315	-0	
216.771	1.44	
217.226	-0	
217.681	2.15	
218.136	-0	
218.592	-0	
219.047	1.32	
219.502	1.65	
219.957	1.78	
220.412	1.8	
220.867	2.26	
221.322	2	
221.777	2.2	
222.232	1.8	
222.687	2.42	
223.142	3.32	
223.596	1.98	
224.051	2.08	
224.506	2.08	
224.96	2.31	
225.415	-0	
225.87	2.87	
226.324	2.12	
226.779	1.94	
227.233	2.41	
227.688	2.41	
228.142	-0	
228.597	2.57	
229.051	-0	
229.505	2.23	
229.959	2.11	
230.414	2.38	
230.868	3.32	
231.322	2.34	
231.776	2.61	
232.23	2.51	
232.684	2.99	
233.138	2.64	
233.592	-0	
234.046	-0	
234.5	2.53	
234.954	2.52	
235.408	2.72	
235.861	2.65	
236.315	-0	
236.769	2.1	
237.222	2.89	
237.676	4.05	
238.13	3.12	
238.583	2.67	
239.037	2.2	
239.49	2.06	
239.944	2.58	
240.397	-0	
240.85	3.07	
241.304	3.53	
241.757	2.66	
242.21	3.03	
242.663	3.21	
243.117	2.64	
243.57	2.43	
244.023	2.12	
244.476	2.09	
244.929	2.53	
245.382	4.08	
245.835	2.32	
246.288	2.54	
246.741	2.93	
247.193	-0	
247.646	2.98	
248.099	2.54	
248.552	2.9	
249.004	2.34	
249.457	2.31	
249.909	2.55	
250.362	2.6	
250.814	-0	
251.267	2.4	
251.719	3.78	
252.172	-0	
252.624	2.7	
253.076	2.9	
253.529	2.43	
253.981	2.31	
254.433	2.46	
254.885	2.04	
255.337	-0	
255.79	2.42	
256.242	2.85	
256.694	2.31	
257.146	2.69	
257.598	2.55	
258.049	2.22	
258.501	2.55	
258.953	2.71	
259.405	-0	
259.857	2.05	
260.308	2.44	
260.76	-0	
261.212	2.81	
261.663	2.58	
262.115	2.4	
262.566	2.56	
263.018	2.48	
263.469	2.48	
263.92	2.76	
264.372	2.94	
264.823	2.43	
265.274	2.35	
265.726	2.29	
266.177	2.59	
266.628	2.71	
267.079	2.4	
267.53	3.29	
267.981	2.35	
268.432	2.27	
268.883	2.68	
269.334	2.4	
269.785	3.36	
270.236	2.16	
270.687	2.52	
271.137	2.7	
271.588	2.45	
272.039	2.66	
272.489	-0	
272.94	3.36	
273.391	2.34	
273.841	2.31	
274.292	2.37	
274.742	3.67	
275.192	2.18	
275.643	2.45	
276.093	2.63	
276.543	2.38	
276.994	2.13	
277.444	2.77	
277.894	-0	
278.344	2.31	
278.794	2.73	
279.244	2.4	
279.694	2.4	
280.144	2.13	
280.594	2.28	
281.044	2.23	
281.494	2.49	
281.944	2.46	
282.394	2.37	
282.843	2.08	
283.293	2.49	
283.743	2.45	
284.192	2.18	
284.642	2.22	
285.091	2.72	
285.541	2.4	
285.99	2.35	
286.44	2.47	
286.889	2.57	
287.338	2.12	
287.788	2.28	
288.237	2.23	
288.686	2.13	
289.135	2.03	
289.584	2.09	
290.034	2.03	
290.483	1.9	
290.932	1.82	
291.381	1.93	
291.83	1.79	
292.278	1.75	
292.727	1.69	
293.176	1.63	
293.625	1.55	
294.074	1.46	
294.522	1.43	
294.971	1.37	
295.42	1.34	
295.868	1.28	
296.317	1.22	
296.765	1.18	
297.214	1.15	
297.662	1.08	
298.11	1.04	
298.559	1.01	
299.007	0.99	
299.455	0.93	
299.903	0.89	
300.352	0.85	
300.8	0.83	
301.248	0.78	
301.696	0.75	
302.144	0.72	
302.592	0.7	
303.04	0.66	
303.488	0.65	
303.936	0.6	
304.383	0.59	
304.831	0.56	
305.279	0.54	
305.727	0.52	
306.174	0.49	
306.622	0.47	
307.069	0.45	
307.517	0.42	
307.964	0.41	
308.412	0.4	
308.859	0.38	
309.306	0.36	
309.754	0.34	
310.201	0.32	
310.648	0.31	
311.096	0.28	
311.543	0.28	
311.99	0.27	
312.437	0.25	
312.884	0.24	
313.331	0.23	
313.778	0.22	
314.225	0.2	
314.672	0.2	
315.118	0.19	
315.565	0.17	
316.012	0.17	
316.459	0.16	
316.905	0.16	
317.352	0.15	
317.798	0.14	
318.245	0.13	
318.691	0.13	
319.138	0.12	
319.584	0.12	
320.031	0.11	
320.477	0.1	
320.923	0.09	
321.37	0.08	
321.816	0.08	
322.262	0.07	
322.708	0.06	
323.154	0.06	
323.6	0.06	
324.046	0.06	
324.492	0.05	
324.938	0.05	
325.384	0.04	
325.83	0.04	
326.276	0.04	
326.721	0.03	
327.167	0.03	
327.613	0.03	
328.058	0.03	
328.504	0.02	
328.949	0.02	
329.395	0.02	
329.84	0.02	
330.286	0.02	
330.731	0.02	
331.177	0.01	
331.622	0.01	
332.067	0	
332.512	0	
332.957	0.01	
333.403	0	
333.848	-0.01	
334.293	-0.01	
334.738	0	
335.183	-0.01	
335.628	-0.01	
336.072	-0.01	
336.517	-0.01	
336.962	-0.01	
337.407	-0.02	
337.852	-0.02	
338.296	-0.01	
338.741	-0.02	
339.185	-0.02	
339.63	-0.03	
340.074	-0.02	
340.519	-0.02	
340.963	-0.03	
341.408	-0.02	
341.852	-0.03	
342.296	-0.03	
342.741	-0.03	
343.185	-0.03	
343.629	-0.03	
344.073	-0.03	
344.517	-0.03	
344.961	-0.03	
345.405	-0.05	
345.849	-0.04	
346.293	-0.03	
346.737	-0.03	
347.181	-0.04	
347.624	-0.05	
348.068	-0.04	
348.512	-0.04	
348.955	-0.05	
349.399	-0.04	
349.843	-0.05	
350.286	-0.04	
350.73	-0.05	
351.173	-0.04	
351.617	-0.04	
352.06	-0.05	
352.503	-0.05	
352.946	-0.05	
353.39	-0.05	
353.833	-0.06	
354.276	-0.04	
354.719	-0.05	
355.162	-0.05	
355.605	-0.05	
356.048	-0.06	
356.491	-0.05	
356.934	-0.06	
357.377	-0.06	
357.82	-0.06	
358.262	-0.06	
358.705	-0.05	
359.148	-0.06	
359.59	-0.07	
360.033	-0.07	
360.475	-0.06	
360.918	-0.05	
361.36	-0.06	
361.803	-0.06	
362.245	-0.07	
362.688	-0.06	
363.13	-0.06	
363.572	-0.06	
364.014	-0.06	
364.456	-0.07	
364.899	-0.07	
365.341	-0.06	
365.783	-0.07	
366.225	-0.06	
366.667	-0.06	
367.108	-0.07	
367.55	-0.06	
367.992	-0.07	
368.434	-0.07	
368.876	-0.07	
369.317	-0.07	
369.759	-0.07	
370.201	-0.06	
370.642	-0.06	
371.084	-0.07	
371.525	-0.06	
371.966	-0.07	
372.408	-0.07	
372.849	-0.08	
373.29	-0.06	
373.732	-0.08	
374.173	-0.07	
374.614	-0.07	
375.055	-0.07	
375.496	-0.07	
375.937	-0.08	
376.378	-0.07	
376.819	-0.07	
377.26	-0.08	
377.701	-0.08	
378.142	-0.07	
378.583	-0.08	
379.023	-0.07	
379.464	-0.08	
379.905	-0.08	
380.345	-0.08	
380.786	-0.08	
381.226	-0.07	
381.667	-0.08	
382.107	-0.08	
382.548	-0.09	
382.988	-0.07	
383.428	-0.08	
383.868	-0.06	
384.309	-0.09	
384.749	-0.08	
385.189	-0.08	
385.629	-0.08	
386.069	-0.09	
386.509	-0.07	
386.949	-0.08	
387.389	-0.1	
387.829	-0.09	
388.268	-0.08	
388.708	-0.08	
389.148	-0.08	
389.588	-0.09	
390.027	-0.08	
390.467	-0.09	
390.906	-0.08	
391.346	-0.08	
391.785	-0.1	
392.225	-0.09	
392.664	-0.08	
393.103	-0.08	
393.543	-0.09	
393.982	-0.09	
394.421	-0.08	
394.86	-0.08	
395.299	-0.09	
395.738	-0.09	
396.177	-0.08	
396.616	-0.08	
397.055	-0.08	
397.494	-0.09	
397.933	-0.09	
398.372	-0.09	
398.81	-0.09	
399.249	-0.09	
399.688	-0.09	
400.126	-0.09	
400.565	-0.09	
401.004	-0.09	
401.442	-0.09	
401.88	-0.1	
402.319	-0.08	
402.757	-0.1	
403.195	-0.09	
403.634	-0.08	
404.072	-0.09	
404.51	-0.09	
404.948	-0.08	
405.386	-0.09	
405.824	-0.1	
406.262	-0.09	
406.7	-0.09	
407.138	-0.09	
407.576	-0.09	
408.014	-0.09	
408.452	-0.09	
408.889	-0.09	
409.327	-0.1	
409.765	-0.09	
410.202	-0.09	
410.64	-0.1	
411.077	-0.09	
411.515	-0.1	
411.952	-0.1	
412.389	-0.09	
412.827	-0.08	
413.264	-0.09	
413.701	-0.1	
414.138	-0.09	
414.575	-0.09	
415.013	-0.09	
415.45	-0.09	
415.887	-0.09	
416.324	-0.09	
416.76	-0.1	
417.197	-0.09	
417.634	-0.1	
418.071	-0.1	
418.508	-0.09	
418.944	-0.1	
419.381	-0.1	
419.818	-0.09	
420.254	-0.1	
420.691	-0.09	
421.127	-0.09	
421.563	-0.1	
422	-0.09	
422.436	-0.1	
422.872	-0.1	
423.309	-0.1	
423.745	-0.1	
424.181	-0.1	
424.617	-0.1	
425.053	-0.11	
425.489	-0.1	
425.925	-0.1	
426.361	-0.1	
426.797	-0.1	
427.233	-0.1	
427.668	-0.1	
428.104	-0.1	
428.54	-0.11	
428.975	-0.11	
429.411	-0.1	
429.847	-0.11	
430.282	-0.11	
430.717	-0.1	
431.153	-0.11	
431.588	-0.1	
432.024	-0.09	
432.459	-0.09	
432.894	-0.1	
433.329	-0.1	
433.764	-0.1	
434.199	-0.1	
434.634	-0.1	
435.069	-0.09	
435.504	-0.1	
435.939	-0.1	
436.374	-0.12	
436.809	-0.11	
437.244	-0.1	
437.678	-0.1	
438.113	-0.1	
438.548	-0.11	
438.982	-0.11	
439.417	-0.1	
439.851	-0.1	
440.286	-0.12	
440.72	-0.1	
441.154	-0.12	
441.589	-0.11	
442.023	-0.11	
442.457	-0.11	
442.891	-0.1	
443.326	-0.11	
443.76	-0.1	
444.194	-0.12	
444.628	-0.1	
445.062	-0.09	
445.495	-0.12	
445.929	-0.1	
446.363	-0.12	
446.797	-0.11	
447.23	-0.11	
447.664	-0.12	
448.098	-0.11	
448.531	-0.11	
448.965	-0.1	
449.398	-0.11	
449.832	-0.11	
450.265	-0.12	
450.698	-0.11	
451.132	-0.12	
451.565	-0.1	
451.998	-0.11	
452.431	-0.12	
452.864	-0.12	
453.297	-0.1	
453.73	-0.11	
454.163	-0.11	
454.596	-0.12	
455.029	-0.11	
455.462	-0.11	
455.895	-0.11	
456.327	-0.11	
456.76	-0.12	
457.193	-0.12	
457.625	-0.12	
458.058	-0.12	
458.49	-0.11	
458.923	-0.11	
459.355	-0.11	
459.787	-0.12	
460.22	-0.11	
460.652	-0.12	
461.084	-0.12	
461.516	-0.11	
461.948	-0.1	
462.381	-0.12	
462.813	-0.11	
463.245	-0.09	
463.676	-0.12	
464.108	-0.11	
464.54	-0.11	
464.972	-0.12	
465.404	-0.12	
465.835	-0.12	
466.267	-0.11	
466.699	-0.12	
467.13	-0.12	
467.562	-0.11	
467.993	-0.12	
468.424	-0.12	
468.856	-0.11	
469.287	-0.11	
469.718	-0.12	
470.15	-0.1	
470.581	-0.12	
471.012	-0.12	
471.443	-0.12	
471.874	-0.11	
472.305	-0.11	
472.736	-0.13	
473.167	-0.11	
473.598	-0.11	
474.028	-0.12	
474.459	-0.11	
474.89	-0.13	
475.32	-0.12	
475.751	-0.12	
476.182	-0.11	
476.612	-0.12	
477.043	-0.12	
477.473	-0.11	
477.903	-0.12	
478.334	-0.12	
478.764	-0.13	
479.194	-0.11	
479.624	-0.11	
480.054	-0.12	
480.484	-0.12	
480.914	-0.11	
481.344	-0.12	
481.774	-0.13	
482.204	-0.13	
482.634	-0.11	
483.064	-0.12	
483.494	-0.12	
483.923	-0.12	
484.353	-0.12	
484.782	-0.12	
485.212	-0.12	
485.642	-0.12	
486.071	-0.13	
486.5	-0.13	
486.93	-0.12	
487.359	-0.13	
487.788	-0.12	
488.217	-0.12	
488.647	-0.12	
489.076	-0.13	
489.505	-0.13	
489.934	-0.11	
490.363	-0.13	
490.792	-0.11	
491.221	-0.13	
491.649	-0.11	
492.078	-0.12	
492.507	-0.14	
492.936	-0.12	
493.364	-0.13	
493.793	-0.12	
494.221	-0.12	
494.65	-0.12	
495.078	-0.12	
495.507	-0.12	
495.935	-0.12	
496.363	-0.13	
496.791	-0.12	
497.22	-0.12	
497.648	-0.11	
498.076	-0.11	
498.504	-0.11	
498.932	-0.12	
499.36	-0.12	
499.788	-0.12	
500.216	-0.12	
500.643	-0.13	
501.071	-0.12	
501.499	-0.12	
501.927	-0.13	
502.354	-0.12	
502.782	-0.11	
503.209	-0.13	
503.637	-0.13	
504.064	-0.12	
504.491	-0.13	
504.919	-0.12	
505.346	-0.12	
505.773	-0.12	
506.2	-0.12	
506.628	-0.12	
507.055	-0.12	
507.482	-0.13	
507.909	-0.11	
508.335	-0.13	
508.762	-0.12	
509.189	-0.12	
509.616	-0.13	
510.043	-0.13	
510.469	-0.11	
510.896	-0.12	
511.323	-0.11	
511.749	-0.12	
512.176	-0.11	
512.602	-0.11	
513.028	-0.12	
513.455	-0.12	
513.881	-0.12	
514.307	-0.1	
514.733	-0.12	
515.16	-0.11	
515.586	-0.12	
516.012	-0.12	
516.438	-0.11	
516.864	-0.12	
517.29	-0.12	
517.715	-0.12	
518.141	-0.13	
518.567	-0.13	
518.993	-0.12	
519.418	-0.11	
519.844	-0.12	
520.269	-0.11	
520.695	-0.11	
521.12	-0.11	
521.546	-0.11	
521.971	-0.12	
522.396	-0.11	
522.822	-0.12	
523.247	-0.12	
523.672	-0.11	
524.097	-0.12	
524.522	-0.11	
524.947	-0.12	
525.372	-0.11	
525.797	-0.11	
526.222	-0.12	
526.647	-0.12	
527.071	-0.11	
527.496	-0.12	
527.921	-0.11	
528.345	-0.12	
528.77	-0.12	
529.194	-0.11	
529.619	-0.11	
530.043	-0.11	
530.468	-0.11	
530.892	-0.11	
531.316	-0.11	
531.74	-0.11	
532.164	-0.11	
532.589	-0.11	
533.013	-0.1	
533.437	-0.11	
533.861	-0.12	
534.284	-0.1	
534.708	-0.11	
535.132	-0.11	
535.556	-0.11	
535.98	-0.11	
536.403	-0.11	
536.827	-0.12	
537.25	-0.12	
537.674	-0.09	
538.097	-0.11	
538.521	-0.11	
538.944	-0.11	
539.367	-0.1	
539.791	-0.12	
540.214	-0.12	
540.637	-0.1	
541.06	-0.1	
541.483	-0.13	
541.906	-0.1	
542.329	-0.12	
542.752	-0.11	
543.175	-0.11	
543.598	-0.1	
544.02	-0.1	
544.443	-0.1	
544.866	-0.11	
545.288	-0.1	
545.711	-0.11	
546.133	-0.11	
546.556	-0.12	
546.978	-0.12	
547.4	-0.11	
547.823	-0.1	
548.245	-0.12	
548.667	-0.09	
549.089	-0.1	
549.511	-0.11	
549.933	-0.09	
550.355	-0.1	
550.777	-0.09	
551.199	-0.1	
551.621	-0.09	
552.043	-0.09	
552.465	-0.11	
552.886	-0.09	
553.308	-0.09	
553.729	-0.11	
554.151	-0.1	
554.572	-0.09	
554.994	-0.1	
555.415	-0.09	
555.837	-0.09	
556.258	-0.09	
556.679	-0.09	
557.1	-0.08	
557.521	-0.08	
557.942	-0.09	
558.363	-0.08	
558.784	-0.09	
559.205	-0.07	
559.626	-0.1	
560.047	-0.09	
560.468	-0.08	
560.888	-0.09	
561.309	-0.08	
561.73	-0.09	
562.15	-0.09	
562.571	-0.08	
562.991	-0.08	
563.412	-0.09	
563.832	-0.08	
564.252	-0.08	
564.673	-0.07	
565.093	-0.08	
565.513	-0.08	
565.933	-0.07	
566.353	-0.07	
566.773	-0.08	
567.193	-0.09	
567.613	-0.09	
568.033	-0.07	
568.452	-0.09	
568.872	-0.09	
569.292	-0.09	
569.711	-0.07	
570.131	-0.08	
570.551	-0.07	
570.97	-0.09	
571.389	-0.09	
571.809	-0.09	
572.228	-0.08	
572.647	-0.07	
573.067	-0.07	
573.486	-0.08	
573.905	-0.09	
574.324	-0.08	
574.743	-0.07	
575.162	-0.08	
575.581	-0.07	
576	-0.06	
576.419	-0.06	
576.837	-0.08	
577.256	-0.07	
577.675	-0.08	
578.093	-0.08	
578.512	-0.08	
578.93	-0.06	
579.349	-0.06	
579.767	-0.07	
580.185	-0.06	
580.604	-0.06	
581.022	-0.05	
581.44	-0.07	
581.858	-0.07	
582.276	-0.06	
582.694	-0.05	
583.112	-0.06	
583.53	-0.05	
583.948	-0.05	
584.366	-0.04	
584.784	-0.05	
585.201	-0.07	
585.619	-0.05	
586.037	-0.05	
586.454	-0.05	
586.872	-0.04	
587.289	-0.04	
587.707	-0.04	
588.124	-0.03	
588.541	-0.04	
588.958	-0.04	
589.376	-0.04	
589.793	-0.03	
590.21	-0.03	
590.627	-0.03	
591.044	-0.02	
591.461	-0.02	
591.878	-0.01	
592.294	-0.02	
592.711	-0.03	
593.128	-0.03	
593.545	-0.03	
593.961	-0.03	
594.378	-0.01	
594.794	0.01	
595.211	0.01	
595.627	-0.02	
596.043	-0.01	
596.46	0	
596.876	-0.01	
597.292	-0.01	
597.708	-0.01	
598.124	-0.01	
598.54	0.01	
598.956	-0.01	
599.372	-0.01	
599.788	-0.01	
600.204	0.01	
600.62	0	
601.035	0.01	
601.451	0.02	
601.867	0.03	
602.282	0.03	
602.698	0.01	
603.113	0.04	
603.529	0.02	
603.944	0.03	
604.359	0.01	
604.774	0.04	
605.19	0.03	
605.605	0.04	
606.02	0.02	
606.435	0.03	
606.85	0.03	
607.265	0.05	
607.68	0.02	
608.094	0.05	
608.509	0.06	
608.924	0.05	
609.338	0.05	
609.753	0.05	
610.168	0.05	
610.582	0.07	
610.997	0.05	
611.411	0.07	
611.825	0.07	
612.24	0.06	
612.654	0.07	
613.068	0.08	
613.482	0.08	
613.896	0.07	
614.31	0.08	
614.724	0.08	
615.138	0.08	
615.552	0.08	
615.966	0.1	
616.379	0.09	
616.793	0.11	
617.207	0.11	
617.62	0.09	
618.034	0.11	
618.447	0.11	
618.861	0.1	
619.274	0.14	
619.687	0.13	
620.101	0.12	
620.514	0.12	
620.927	0.13	
621.34	0.12	
621.753	0.16	
622.166	0.13	
622.579	0.11	
622.992	0.14	
623.405	0.15	
623.817	0.14	
624.23	0.15	
624.643	0.16	
625.055	0.16	
625.468	0.15	
625.88	0.15	
626.293	0.17	
626.705	0.16	
627.118	0.17	
627.53	0.18	
627.942	0.17	
628.354	0.17	
628.766	0.19	
629.179	0.18	
629.591	0.2	
630.003	0.18	
630.414	0.2	
630.826	0.21	
631.238	0.22	
631.65	0.21	
632.061	0.21	
632.473	0.23	
632.885	0.23	
633.296	0.24	
633.708	0.23	
634.119	0.25	
634.53	0.23	
634.942	0.24	
635.353	0.23	
635.764	0.27	
636.175	0.27	
636.586	0.25	
636.998	0.23	
637.408	0.24	
637.819	0.28	
638.23	0.27	
638.641	0.29	
639.052	0.28	
639.463	0.32	
639.873	0.28	
640.284	0.33	
640.694	0.3	
641.105	0.32	
641.515	0.32	
641.926	0.31	
642.336	0.32	
642.746	0.33	
643.157	0.37	
643.567	0.32	
643.977	0.36	
644.387	0.36	
644.797	0.33	
645.207	0.34	
645.617	0.37	
646.026	0.36	
646.436	0.39	
646.846	0.33	
647.256	0.4	
647.665	0.38	
648.075	0.42	
648.484	0.36	
648.894	0.38	
649.303	0.35	
649.713	0.38	
650.122	0.39	
650.531	0.39	
650.94	0.43	
651.349	0.4	
651.758	0.42	
652.167	0.4	
652.576	0.44	
652.985	0.41	
653.394	0.42	
653.803	0.47	
654.212	0.46	
654.62	0.44	
655.029	0.43	
655.437	0.48	
655.846	0.37	
656.254	0.35	
656.663	0.39	
657.071	0.43	
657.479	0.45	
657.888	0.45	
658.296	0.43	
658.704	0.49	
659.112	0.47	
659.52	0.48	
659.928	0.52	
660.336	0.53	
660.744	0.51	
661.152	0.56	
661.559	0.57	
661.967	0.53	
662.375	0.62	
662.782	0.54	
663.19	0.53	
663.597	0.59	
664.005	0.58	
664.412	0.59	
664.819	0.63	
665.226	0.56	
665.634	0.63	
666.041	0.61	
666.448	0.67	
666.855	0.58	
667.262	0.54	
667.669	0.63	
668.075	0.65	
668.482	0.56	
668.889	0.64	
669.296	0.67	
669.702	0.59	
670.109	0.58	
670.515	0.63	
670.922	0.66	
671.328	0.65	
671.734	0.66	
672.141	0.64	
672.547	0.63	
672.953	0.65	
673.359	0.65	
673.765	0.66	
674.171	0.63	
674.577	0.73	
674.983	0.65	
675.389	0.68	
675.795	0.71	
676.201	0.74	
676.606	0.71	
677.012	0.73	
677.417	0.69	
677.823	0.75	
678.228	0.73	
678.634	0.72	
679.039	0.73	
679.444	0.71	
679.849	0.69	
680.255	0.75	
680.66	0.75	
681.065	0.78	
681.47	0.9	
681.875	0.75	
682.28	0.79	
682.684	0.76	
683.089	0.77	
683.494	0.79	
683.899	0.85	
684.303	0.81	
684.708	0.93	
685.112	0.9	
685.517	0.84	
685.921	0.82	
686.325	0.86	
686.729	0.88	
687.134	0.93	
687.538	0.85	
687.942	0.89	
688.346	0.84	
688.75	0.9	
689.154	0.88	
689.558	0.91	
689.961	0.89	
690.365	0.95	
690.769	0.86	
691.173	0.9	
691.576	0.91	
691.98	0.95	
692.383	0.92	
692.786	0.89	
693.19	1.01	
693.593	0.87	
693.996	0.93	
694.399	1.01	
694.803	1.03	
695.206	0.99	
695.609	1.05	
696.012	0.87	
696.414	1.05	
696.817	1.13	
697.22	0.94	
697.623	1.05	
698.025	1.11	
698.428	0.94	
698.831	0.97	
699.233	1.03	
699.636	0.93	
700.038	1.31	
700.44	1.25	
700.842	1.04	
701.245	1.15	
701.647	0.92	
702.049	1.24	
702.451	1.12	
702.853	1.04	
703.255	1.13	
703.657	0.96	
704.058	1.13	
704.46	1.03	
704.862	1.03	
705.264	1.09	
705.665	1.22	
706.067	1.1	
706.468	1.01	
706.869	1.04	
707.271	1.41	
707.672	1.11	
708.073	1.07	
708.474	1.1	
708.876	1.06	
709.277	1.31	
709.678	1.23	
710.079	1.38	
710.479	1.47	
710.88	1.25	
711.281	1.52	
711.682	1.17	
712.082	1.21	
712.483	1.25	
712.883	1.66	
713.284	1.24	
713.684	1.28	
714.085	1.13	
714.485	1.23	
714.885	1.26	
715.285	1.34	
715.686	1.09	
716.086	1.35	
716.486	1.27	
716.886	1.12	
717.285	1.28	
717.685	1.44	
718.085	1.34	
718.485	1.41	
718.884	1.27	
719.284	1.34	
719.684	1.06	
720.083	1.28	
720.483	1.43	
720.882	1.62	
721.281	1.21	
721.68	1.26	
722.08	1.43	
722.479	1.66	
722.878	1.28	
723.277	1.35	
723.676	1.34	
724.075	1.41	
724.474	1.41	
724.872	1.25	
725.271	1.22	
725.67	1.29	
726.068	1.49	
726.467	1.17	
726.865	1.28	
727.264	1.19	
727.662	1.31	
728.061	1.57	
728.459	1.29	
728.857	1.21	
729.255	1.29	
729.653	2.24	
730.051	1.44	
730.449	1.39	
730.847	1.68	
731.245	1.41	
731.643	1.93	
732.041	1.36	
732.438	1.37	
732.836	1.37	
733.233	1.39	
733.631	1.4	
734.028	1.32	
734.426	1.17	
734.823	1.49	
735.22	1.27	
735.617	1.67	
736.015	1.76	
736.412	1.52	
736.809	1.92	
737.206	2.38	
737.603	1.6	
737.999	1.77	
738.396	1.41	
738.793	1.15	
739.19	1.83	
739.586	1.58	
739.983	1.55	
740.379	2.14	
740.776	1.55	
741.172	1.48	
741.568	1.3	
741.965	1.51	
742.361	1.69	
742.757	1.48	
743.153	1.76	
743.549	1.4	
743.945	1.53	
744.341	2.32	
744.737	1.54	
745.133	1.72	
745.528	1.92	
745.924	1.83	
746.32	1.76	
746.715	1.39	
747.111	2.08	
747.506	1.72	
747.901	1.58	
748.297	1.28	
748.692	1.24	
749.087	1.52	
749.482	1.72	
749.877	-0	
750.272	1.66	
750.667	1.41	
751.062	2.07	
751.457	1.76	
751.852	2.09	
752.247	2.51	
752.641	1.93	
753.036	-0	
753.43	1.45	
753.825	-0	
754.219	1.43	
754.614	1.23	
755.008	1.87	
755.402	-0	
755.796	1.48	
756.19	-0	
756.584	1.41	
756.978	1.77	
757.372	1.6	
757.766	1.55	
758.16	1.68	
758.554	1.68	
758.948	2.31	
759.341	1.36	
759.735	1.83	
760.128	2.89	
760.522	-0	
760.915	-0	
761.308	1.59	
761.702	1.5	
762.095	1.63	
762.488	1.96	
762.881	1.96	
763.274	-0	
763.667	2.89	
764.06	2.05	
764.453	1.4	
764.846	1.51	
765.239	2.37	
765.631	1.84	
766.024	1.94	
766.416	1.6	
766.809	-0	
767.201	-0	
767.594	1.46	
767.986	2.12	
768.378	1.57	
768.77	-0	
769.163	2.06	
769.555	2.7	
769.947	1.83	
770.339	1.5	
770.73	1.48	
771.122	1.63	
771.514	1.49	
771.906	1.61	
772.297	1.41	
772.689	1.72	
773.081	1.91	
773.472	1.5	
773.863	2.61	
774.255	1.9	
774.646	1.59	
775.037	1.91	
775.428	1.69	
775.82	-0	
776.211	1.79	
776.602	2.03	
776.993	1.56	
777.383	-0	
777.774	-0	
778.165	-0	
778.556	2.56	
778.946	-0	
779.337	2.24	
779.727	1.52	
780.118	1.43	
780.508	1.36	
780.898	1.38	
781.289	1.41	
781.679	2.23	
782.069	2.26	
782.459	1.93	
782.849	-0	
783.239	1.61	
783.629	-0	
784.019	-0	
784.408	1.5	
784.798	1.46	
785.188	-0	
785.577	1.34	
785.967	-0	
786.356	1.58	
786.746	1.46	
787.135	1.5	
787.524	1.66	
787.914	1.39	
788.303	-0	
788.692	2.07	
789.081	1.81	
789.47	2.13	
789.859	2.17	
790.248	1.8	
790.636	1.99	
791.025	1.32	
791.414	2.19	
791.802	-0	
792.191	1.68	
792.579	1.96	
792.968	1.89	
793.356	1.65	
793.744	-0	
794.133	1.81	
794.521	2.84	
794.909	1.66	
795.297	1.52	
795.685	1.9	
796.073	-0	
796.461	1.95	
796.848	1.31	
797.236	-0	
797.624	-0	
798.011	-0	
798.399	-0	
798.787	1.38	
799.174	1.45	
799.561	1.86	
799.949	1.72	
800.336	-0	
800.723	-0	
801.11	-0	
801.497	1.7	
801.884	2.18	
802.271	1.99	
802.658	2.08	
803.045	-0	
803.432	1.45	
803.818	2.19	
804.205	1.91	
804.591	2.07	
804.978	2.36	
805.364	1.51	
805.751	1.28	
806.137	-0	
806.523	-0	
806.91	-0	
807.296	2.03	
807.682	-0	
808.068	-0	
808.454	3.04	
808.84	-0	
809.225	-0	
809.611	1.6	
809.997	1.38	
810.382	-0	
810.768	-0	
811.153	1.59	
811.539	1.88	
811.924	-0	
812.31	1.42	
812.695	1.49	
813.08	1.43	
813.465	1.43	
813.85	2.01	
814.235	1.08	
814.62	1.64	
815.005	-0	
815.39	1.84	
815.775	1.74	
816.159	-0	
816.544	-0	
816.929	1.34	
817.313	1.95	
817.697	1.86	
818.082	1.91	
818.466	1.38	
818.85	-0	
819.235	-0	
819.619	-0	
820.003	1.14	
820.387	1.34	
820.771	-0	
821.155	1.4	
821.538	1.63	
821.922	1.57	
822.306	-0	
822.689	-0	
823.073	-0	
823.457	1.21	
823.84	2.64	
824.223	2.09	
824.607	1.99	
824.99	2.01	
825.373	1.72	
825.756	-0	
826.139	2.31	
826.522	-0	
826.905	-0	
827.288	1.54	
827.671	1.96	
828.054	-0	
828.436	1.86	
828.819	1.85	
829.201	-0	
829.584	1.55	
829.966	2.14	
830.349	1.71	
830.731	1.56	
831.113	1.66	
831.495	2.6	
831.878	-0	
832.26	2.25	
832.642	-0	
833.024	1.86	
833.405	2.96	
833.787	1.28	
834.169	2.95	
834.551	1.64	
834.932	2.95	
835.314	1.77	
835.695	1.88	
836.077	2.15	
836.458	1.12	
836.839	1.32	
837.22	1.11	
837.602	2.56	
837.983	2	
838.364	1.04	
838.745	-0	
839.126	-0	
839.506	1.73	
839.887	1.55	
840.268	-0	
840.649	-0	
841.029	1.48	
841.41	-0	
841.79	-0	
842.171	-0	
842.551	1.83	
842.931	2.12	
843.311	2.03	
843.691	-0	
844.072	-0	
844.452	2.92	
844.832	1.24	
845.211	1.18	
845.591	1.49	
845.971	1.53	
846.351	-0	
846.73	-0	
847.11	1.68	
847.489	-0	
847.869	1.66	
848.248	1.47	
848.627	1.25	
849.007	-0	
849.386	1.64	
849.765	1.68	
850.144	1.54	
850.523	1.64	
850.902	1.33	
851.281	1.22	
851.66	-0	
852.038	1.36	
852.417	1.88	
852.796	1.9	
853.174	-0	
853.553	-0	
853.931	1.72	
854.309	2.2	
854.688	-0	
855.066	1.74	
855.444	-0	
855.822	-0	
856.2	-0	
856.578	1.43	
856.956	1.34	
857.334	2.89	
857.712	1.22	
858.089	1.64	
858.467	0.95	
858.844	1.3	
859.222	1.61	
859.599	-0	
859.977	-0	
860.354	1.25	
860.731	2.31	
861.109	-0	
861.486	-0	
861.863	-0	
862.24	1.23	
862.617	1.1	
862.993	1	
863.37	1.1	
863.747	-0	
864.124	1.31	
864.5	1.29	
864.877	1.73	
865.253	1.4	
865.63	1.44	
866.006	1.3	
866.382	-0	
866.758	-0	
867.135	-0	
867.511	1.57	
867.887	1.19	
868.263	-0	
868.639	2.08	
869.014	1.07	
869.39	1.36	
869.766	2.15	
870.141	1.68	
870.517	1.23	
870.892	-0	
871.268	-0	
871.643	1.11	
872.019	1.07	
872.394	1.56	
872.769	2.8	
873.144	2.48	
873.519	-0	
873.894	1.87	
874.269	1.22	
874.644	1.06	
875.019	1.76	
875.393	2.25	
875.768	-0	
876.143	-0	
876.517	0.95	
876.891	1.29	
877.266	-0	
877.64	1.24	
878.014	1.27	
878.389	1.6	
878.763	1.05	
879.137	1.66	
879.511	-0	
879.885	2.46	
880.259	1.33	
880.632	1.61	
881.006	-0	
881.38	-0	
881.753	1.25	
882.127	1.3	
882.5	1.89	
882.874	-0	
883.247	1.4	
883.62	1.65	
883.994	-0	
884.367	1.18	
884.74	1.1	
885.113	1.61	
885.486	-0	
885.859	-0	
886.231	1.65	
886.604	-0	
886.977	-0	
887.349	-0	
887.722	1.12	
888.094	1.53	
888.467	-0	
888.839	1.7	
889.211	2.85	
889.584	1.15	
889.956	1.34	
890.328	-0	
890.7	1.13	
891.072	1.34	
891.444	1.81	
891.816	1.5	
892.187	1.4	
892.559	-0	
892.931	-0	
893.302	1.66	
893.674	1.51	
894.045	-0	
894.416	-0	
894.788	1.74	
895.159	1.35	
895.53	1.47	
895.901	1.07	
896.272	1.54	
896.643	1.96	
897.014	1.04	
897.385	-0	
897.756	-0	
898.126	1.48	
898.497	-0	
898.867	-0	
899.238	1.29	
899.608	0.99	
899.979	0.91	
900.349	-0	
900.719	-0	
901.089	-0	
901.459	1.44	
901.829	-0	
902.199	1.01	
902.569	1.93	
902.939	-0	
903.309	0.81	
903.679	1.69	
904.048	-0	
904.418	2.64	
904.787	1.15	
905.157	-0	
905.526	1.73	
905.895	-0	
906.265	1.05	
906.634	0.9	
907.003	0.79	
907.372	0.98	
907.741	0.97	
908.11	-0	
908.478	1.2	
908.847	-0	
909.216	-0	
909.585	-0	
909.953	1.46	
910.322	1.54	
910.69	1.69	
911.058	-0	
911.427	-0	
911.795	-0	
912.163	1.63	
912.531	1.14	
912.899	1.09	
913.267	1.07	
913.635	1.61	
914.003	1.88	
914.37	1.07	
914.738	1.16	
915.106	-0	
915.473	2.14	
915.841	1.26	
916.208	-0	
916.575	1.37	
916.943	1.44	
917.31	1.5	
917.677	-0	
918.044	2.39	
918.411	0.77	
918.778	-0	
919.145	1.18	
919.512	0.8	
919.879	1.01	
920.245	0.9	
920.612	1.21	
920.978	1.56	
921.345	1.36	
921.711	1.34	
922.078	1.01	
922.444	-0	
922.81	-0	
923.176	-0	
923.542	1.87	
923.908	1.63	
924.274	-0	
924.64	-0	
925.006	1.38	
925.371	-0	
925.737	-0	
926.103	-0	
926.468	0.82	
926.834	0.82	
927.199	-0	
927.564	-0	
927.93	1	
928.295	-0	
928.66	-0	
929.025	0.94	
929.39	1.69	
929.755	0.75	
930.12	0.68	
930.484	0.71	
930.849	0.62	
931.214	-0	
931.578	1.43	
931.943	1.31	
932.307	1.7	
932.672	0.86	
933.036	-0	
933.4	-0	
933.764	-0	
934.128	0.72	
934.492	0.86	
934.856	-0	
935.22	-0	
935.584	-0	
935.948	-0	
936.311	0.9	
936.675	0.8	
937.039	0.86	
937.402	-0	
937.765	1.03	
938.129	-0	
938.492	1.11	
938.855	-0	
939.218	-0	
939.581	1.22	
939.944	-0	
940.307	1.43	
940.67	1.68	
941.033	0.77	
941.396	-0	
941.758	0.99	
942.121	1.17	
942.483	-0	
942.846	-0	
943.208	-0	
943.571	0.75	
943.933	-0	
944.295	-0	
944.657	0.85	
945.019	0.34	
945.381	0.93	
945.743	0.81	
946.105	0.48	
946.467	-0	
946.828	-0	
947.19	0.98	
947.551	-0	
947.913	-0	
948.274	1.22	
948.636	0.63	
948.997	-0	
949.358	1.03	
949.719	-0	
950.08	-0	
950.441	1.61	
950.802	-0	
951.163	-0	
951.524	0.95	
951.885	-0	
952.245	-0	
952.606	-0	
952.966	1.95	
953.327	-0	
953.687	-0	
954.047	1.57	
954.408	-0	
954.768	1.03	
955.128	-0	
955.488	-0	
955.848	-0	
956.208	0.51	
956.568	-0	
956.927	0.67	
957.287	-0	
957.647	0.35	
958.006	0.69	
958.366	0.7	
958.725	0.7	
959.084	0.56	
959.444	-0	
959.803	-0	
960.162	0.31	
960.521	0.85	
960.88	0.81	
961.239	1.57	
961.598	1.08	
961.957	0.55	
962.315	-0	
962.674	-0	
963.033	-0	
963.391	-0	
963.75	0.42	
964.108	-0	
964.466	-0	
964.824	-0	
965.183	0.57	
965.541	-0	
965.899	0.36	
966.257	-0	
966.614	-0	
966.972	-0	
967.33	1.26	
967.688	0.46	
968.045	-0	
968.403	-1.12	
968.76	-0	
969.118	0.75	
969.475	0.66	
969.832	-0	
970.189	-0	
970.546	0.2	
970.903	-0	
971.26	-0	
971.617	0.33	
971.974	-0	
972.331	-0	
972.688	1.38	
973.044	-0	
973.401	-0	
973.757	1.46	
974.114	1.05	
974.47	-0	
974.826	-0.26	
975.182	-0	
975.538	1.84	
975.895	-0	
976.251	-1.21	
976.606	-0	
976.962	0.39	
977.318	0.35	
977.674	-0	
978.029	0.05	
978.385	0.47	
978.74	1.46	
979.096	-0	
979.451	-0.13	
979.806	0.08	
980.162	0.42	
980.517	0.21	
980.872	-1.23	
981.227	-0.35	
981.582	-0	
981.937	-0	
982.291	1.41	
982.646	0.15	
983.001	-0	
983.355	0.48	
983.71	-0	
984.064	-0.05	
984.419	-0	
984.773	-0	
985.127	-0.37	
985.481	-0	
985.835	0.31	
986.189	-0.4	
986.543	0.15	
986.897	0.02	
987.251	-0.6	
987.605	-0.15	
987.958	-0	
988.312	0.02	
988.665	0.02	
989.019	-0	
989.372	0.4	
989.725	0.94	
990.079	-0	
990.432	0.3	
990.785	0.22	
991.138	-0	
991.491	-0	
991.844	-0.94	
992.197	0.73	
992.549	-0	
992.902	-0	
993.254	-0	
993.607	-0	
993.959	0.51	
994.312	-0.59	
994.664	0.06	
995.016	-0	
995.368	0.16	
995.721	-0	
996.073	-0	
996.425	-0	
996.776	-0	
997.128	0.1	
997.48	-0.26	
997.832	0.75	
998.183	0.08	
998.535	-0.57	
998.886	0.21	
999.237	-0	
999.589	0.02	
999.94	-0.5	
1000.291	-0.49	
1000.642	0.71	
1000.993	0.29	
1001.344	-0.62	
1001.695	-0	
1002.046	-0.15	
1002.397	-0.2	
1002.747	-0	
1003.098	-0.2	
1003.448	0.2	
1003.799	-0	
1004.149	-0.1	
1004.499	0.2	
1004.85	-0.04	
1005.2	-0.27	
1005.55	0.09	
1005.9	0.2	
1006.25	-0.57	
1006.6	0.52	
1006.949	-0	
1007.299	-0	
1007.649	0.97	
1007.998	-0.91	
1008.348	0.51	
1008.697	0.22	
1009.047	0.9	
1009.396	0.64	
1009.745	-0	
1010.094	-0	
1010.443	0.98	
1010.792	0.46	
1011.141	0.06	
1011.49	-0.09	
1011.839	-0	
1012.188	1.48	
1012.536	0.13	
1012.885	0.11	
1013.233	-0.43	
1013.582	-1	
1013.93	-0.07	
1014.278	-0.31	
1014.627	-0	
1014.975	0.09	
1015.323	-0.22	
1015.671	-0.8	
1016.019	-0.6	
1016.367	-0.41	
1016.714	-0.05	
1017.062	-0	
1017.41	0.75	
1017.757	0.24	
1018.105	-0.9	
1018.452	-0	
1018.8	0.69	
1019.147	0.54	
1019.494	-0	
1019.841	0.3	
1020.188	-0.05	
1020.535	-0	
1020.882	-0.03	
1021.229	-0.12	
1021.576	0.24	
1021.922	0.09	
1022.269	-0	
1022.615	-0	
1022.962	-0.08	
1023.308	-0.08	
1023.655	-0.08	
