Absorbance:209		
188.012	0.11	
188.47	0.11	
188.927	0.11	
189.385	-0.23	
189.842	-0.27	
190.3	-0	
190.757	-0	
191.215	0.53	
191.672	0.21	
192.129	0.16	
192.586	-1.01	
193.044	0.71	
193.501	-0.17	
193.958	0.76	
194.415	-0.53	
194.872	-0.08	
195.329	-0.7	
195.787	0.37	
196.244	-0	
196.7	0.14	
197.157	-0.8	
197.614	-0	
198.071	0.16	
198.528	-0	
198.985	0.5	
199.441	0.75	
199.898	0.36	
200.355	0.91	
200.812	0.54	
201.268	0.48	
201.725	0.99	
202.181	0.48	
202.638	1.01	
203.094	0.5	
203.551	0.81	
204.007	0.47	
204.463	0.56	
204.92	0.49	
205.376	0.51	
205.832	0.33	
206.288	0.36	
206.744	0.4	
207.201	-0	
207.657	0.39	
208.113	0.35	
208.569	0.38	
209.025	0.39	
209.481	0.37	
209.937	0.52	
210.392	0.75	
210.848	0.66	
211.304	0.83	
211.76	1.53	
212.215	0.7	
212.671	0.75	
213.127	0.69	
213.582	0.5	
214.038	0.73	
214.494	0.85	
214.949	1.02	
215.404	1.49	
215.86	1.14	
216.315	1.27	
216.771	1.32	
217.226	1.56	
217.681	1.24	
218.136	1.25	
218.592	1.5	
219.047	1.48	
219.502	1.74	
219.957	1.55	
220.412	1.62	
220.867	-0	
221.322	2.48	
221.777	-0	
222.232	2.2	
222.687	2.53	
223.142	1.92	
223.596	-0	
224.051	2.45	
224.506	1.94	
224.96	1.85	
225.415	2.14	
225.87	2.35	
226.324	-0	
226.779	2.13	
227.233	2.15	
227.688	2.61	
228.142	2.48	
228.597	2.17	
229.051	3.85	
229.505	-0	
229.959	2.4	
230.414	2.86	
230.868	1.96	
231.322	2.18	
231.776	2.47	
232.23	2.13	
232.684	-0	
233.138	2.34	
233.592	2.25	
234.046	2.65	
234.5	2.32	
234.954	2.58	
235.408	-0	
235.861	3.63	
236.315	2.25	
236.769	2.81	
237.222	2.11	
237.676	2.33	
238.13	2.46	
238.583	2.53	
239.037	3.11	
239.49	2.31	
239.944	2.23	
240.397	2.24	
240.85	2.44	
241.304	2.28	
241.757	2.07	
242.21	2.38	
242.663	2.29	
243.117	2.89	
243.57	2.6	
244.023	-0	
244.476	2.22	
244.929	2.63	
245.382	2.26	
245.835	2.31	
246.288	2.29	
246.741	2.15	
247.193	2.47	
247.646	2.29	
248.099	3.39	
248.552	2.33	
249.004	2.47	
249.457	2.45	
249.909	2.43	
250.362	2.25	
250.814	2.98	
251.267	2.37	
251.719	2.4	
252.172	2.28	
252.624	2.46	
253.076	2.29	
253.529	2.34	
253.981	2.4	
254.433	2.57	
254.885	2.51	
255.337	3.1	
255.79	2.13	
256.242	2.72	
256.694	2.69	
257.146	2.11	
257.598	2.88	
258.049	2.62	
258.501	2.55	
258.953	2.41	
259.405	2.21	
259.857	2.2	
260.308	3.19	
260.76	2.77	
261.212	-0	
261.663	2.72	
262.115	2.49	
262.566	2.69	
263.018	2.45	
263.469	2.42	
263.92	-0	
264.372	2.7	
264.823	2.67	
265.274	2.64	
265.726	2.4	
266.177	2.51	
266.628	2.5	
267.079	2.27	
267.53	2.56	
267.981	2.54	
268.432	3.21	
268.883	2.71	
269.334	2.56	
269.785	2.26	
270.236	2.54	
270.687	2.71	
271.137	2.66	
271.588	2.61	
272.039	2.53	
272.489	2.44	
272.94	3.16	
273.391	2.29	
273.841	2.67	
274.292	2.26	
274.742	2.11	
275.192	2.26	
275.643	2.7	
276.093	2.37	
276.543	2.51	
276.994	2.56	
277.444	2.85	
277.894	2.68	
278.344	2.44	
278.794	2.33	
279.244	2.46	
279.694	2.5	
280.144	2.54	
280.594	2.34	
281.044	2.2	
281.494	2.42	
281.944	2.33	
282.394	2.43	
282.843	2.24	
283.293	2.59	
283.743	2.29	
284.192	2.5	
284.642	2.3	
285.091	2.3	
285.541	2.1	
285.99	2.3	
286.44	2.43	
286.889	2	
287.338	2.15	
287.788	2.27	
288.237	1.98	
288.686	1.99	
289.135	2.02	
289.584	1.99	
290.034	1.91	
290.483	1.81	
290.932	1.78	
291.381	1.78	
291.83	1.77	
292.278	1.71	
292.727	1.68	
293.176	1.57	
293.625	1.48	
294.074	1.47	
294.522	1.45	
294.971	1.37	
295.42	1.32	
295.868	1.27	
296.317	1.23	
296.765	1.14	
297.214	1.13	
297.662	1.1	
298.11	1.05	
298.559	0.99	
299.007	0.96	
299.455	0.94	
299.903	0.91	
300.352	0.88	
300.8	0.81	
301.248	0.8	
301.696	0.77	
302.144	0.73	
302.592	0.7	
303.04	0.68	
303.488	0.63	
303.936	0.61	
304.383	0.59	
304.831	0.55	
305.279	0.54	
305.727	0.52	
306.174	0.48	
306.622	0.47	
307.069	0.46	
307.517	0.43	
307.964	0.42	
308.412	0.4	
308.859	0.37	
309.306	0.36	
309.754	0.34	
310.201	0.32	
310.648	0.31	
311.096	0.3	
311.543	0.28	
311.99	0.28	
312.437	0.25	
312.884	0.25	
313.331	0.24	
313.778	0.22	
314.225	0.22	
314.672	0.21	
315.118	0.2	
315.565	0.19	
316.012	0.17	
316.459	0.16	
316.905	0.15	
317.352	0.15	
317.798	0.13	
318.245	0.13	
318.691	0.13	
319.138	0.12	
319.584	0.1	
320.031	0.1	
320.477	0.1	
320.923	0.1	
321.37	0.1	
321.816	0.1	
322.262	0.08	
322.708	0.08	
323.154	0.07	
323.6	0.07	
324.046	0.06	
324.492	0.06	
324.938	0.05	
325.384	0.05	
325.83	0.05	
326.276	0.05	
326.721	0.04	
327.167	0.04	
327.613	0.04	
328.058	0.04	
328.504	0.03	
328.949	0.03	
329.395	0.03	
329.84	0.01	
330.286	0.02	
330.731	0.01	
331.177	0.02	
331.622	0.01	
332.067	0.01	
332.512	0.01	
332.957	0.01	
333.403	0	
333.848	0.01	
334.293	0	
334.738	0	
335.183	-0.01	
335.628	-0	
336.072	-0	
336.517	-0.01	
336.962	-0	
337.407	-0.01	
337.852	-0.02	
338.296	-0	
338.741	-0.02	
339.185	-0.01	
339.63	-0.02	
340.074	-0.01	
340.519	-0.02	
340.963	-0.01	
341.408	-0.02	
341.852	-0.01	
342.296	-0.02	
342.741	-0.03	
343.185	-0.02	
343.629	-0.03	
344.073	-0.03	
344.517	-0.03	
344.961	-0.02	
345.405	-0.03	
345.849	-0.01	
346.293	-0.02	
346.737	-0.03	
347.181	-0.04	
347.624	-0.03	
348.068	-0.03	
348.512	-0.04	
348.955	-0.03	
349.399	-0.03	
349.843	-0.04	
350.286	-0.03	
350.73	-0.04	
351.173	-0.04	
351.617	-0.04	
352.06	-0.04	
352.503	-0.04	
352.946	-0.04	
353.39	-0.04	
353.833	-0.05	
354.276	-0.04	
354.719	-0.04	
355.162	-0.04	
355.605	-0.04	
356.048	-0.04	
356.491	-0.04	
356.934	-0.05	
357.377	-0.05	
357.82	-0.04	
358.262	-0.04	
358.705	-0.06	
359.148	-0.05	
359.59	-0.05	
360.033	-0.05	
360.475	-0.03	
360.918	-0.04	
361.36	-0.05	
361.803	-0.06	
362.245	-0.05	
362.688	-0.06	
363.13	-0.05	
363.572	-0.05	
364.014	-0.06	
364.456	-0.06	
364.899	-0.05	
365.341	-0.06	
365.783	-0.05	
366.225	-0.05	
366.667	-0.05	
367.108	-0.05	
367.55	-0.06	
367.992	-0.06	
368.434	-0.06	
368.876	-0.05	
369.317	-0.06	
369.759	-0.07	
370.201	-0.07	
370.642	-0.06	
371.084	-0.06	
371.525	-0.06	
371.966	-0.06	
372.408	-0.06	
372.849	-0.05	
373.29	-0.06	
373.732	-0.06	
374.173	-0.06	
374.614	-0.06	
375.055	-0.06	
375.496	-0.07	
375.937	-0.06	
376.378	-0.06	
376.819	-0.06	
377.26	-0.07	
377.701	-0.06	
378.142	-0.07	
378.583	-0.07	
379.023	-0.06	
379.464	-0.07	
379.905	-0.07	
380.345	-0.07	
380.786	-0.07	
381.226	-0.07	
381.667	-0.06	
382.107	-0.07	
382.548	-0.06	
382.988	-0.07	
383.428	-0.07	
383.868	-0.07	
384.309	-0.07	
384.749	-0.07	
385.189	-0.06	
385.629	-0.06	
386.069	-0.07	
386.509	-0.06	
386.949	-0.06	
387.389	-0.07	
387.829	-0.06	
388.268	-0.08	
388.708	-0.07	
389.148	-0.08	
389.588	-0.07	
390.027	-0.08	
390.467	-0.07	
390.906	-0.07	
391.346	-0.09	
391.785	-0.08	
392.225	-0.07	
392.664	-0.07	
393.103	-0.08	
393.543	-0.08	
393.982	-0.07	
394.421	-0.07	
394.86	-0.08	
395.299	-0.07	
395.738	-0.06	
396.177	-0.07	
396.616	-0.07	
397.055	-0.07	
397.494	-0.07	
397.933	-0.06	
398.372	-0.07	
398.81	-0.07	
399.249	-0.08	
399.688	-0.08	
400.126	-0.08	
400.565	-0.09	
401.004	-0.09	
401.442	-0.07	
401.88	-0.08	
402.319	-0.07	
402.757	-0.08	
403.195	-0.08	
403.634	-0.08	
404.072	-0.09	
404.51	-0.08	
404.948	-0.08	
405.386	-0.08	
405.824	-0.07	
406.262	-0.08	
406.7	-0.08	
407.138	-0.09	
407.576	-0.08	
408.014	-0.08	
408.452	-0.08	
408.889	-0.08	
409.327	-0.09	
409.765	-0.08	
410.202	-0.08	
410.64	-0.08	
411.077	-0.09	
411.515	-0.08	
411.952	-0.08	
412.389	-0.08	
412.827	-0.08	
413.264	-0.08	
413.701	-0.08	
414.138	-0.09	
414.575	-0.09	
415.013	-0.09	
415.45	-0.1	
415.887	-0.07	
416.324	-0.08	
416.76	-0.08	
417.197	-0.09	
417.634	-0.09	
418.071	-0.08	
418.508	-0.09	
418.944	-0.09	
419.381	-0.08	
419.818	-0.08	
420.254	-0.08	
420.691	-0.09	
421.127	-0.1	
421.563	-0.09	
422	-0.09	
422.436	-0.09	
422.872	-0.09	
423.309	-0.1	
423.745	-0.09	
424.181	-0.1	
424.617	-0.09	
425.053	-0.09	
425.489	-0.09	
425.925	-0.09	
426.361	-0.09	
426.797	-0.09	
427.233	-0.08	
427.668	-0.09	
428.104	-0.09	
428.54	-0.09	
428.975	-0.09	
429.411	-0.09	
429.847	-0.09	
430.282	-0.1	
430.717	-0.09	
431.153	-0.08	
431.588	-0.09	
432.024	-0.1	
432.459	-0.1	
432.894	-0.09	
433.329	-0.09	
433.764	-0.09	
434.199	-0.1	
434.634	-0.09	
435.069	-0.1	
435.504	-0.09	
435.939	-0.1	
436.374	-0.1	
436.809	-0.1	
437.244	-0.09	
437.678	-0.09	
438.113	-0.1	
438.548	-0.08	
438.982	-0.1	
439.417	-0.09	
439.851	-0.1	
440.286	-0.09	
440.72	-0.09	
441.154	-0.08	
441.589	-0.1	
442.023	-0.1	
442.457	-0.09	
442.891	-0.1	
443.326	-0.1	
443.76	-0.1	
444.194	-0.09	
444.628	-0.1	
445.062	-0.09	
445.495	-0.09	
445.929	-0.09	
446.363	-0.09	
446.797	-0.09	
447.23	-0.09	
447.664	-0.1	
448.098	-0.11	
448.531	-0.09	
448.965	-0.1	
449.398	-0.1	
449.832	-0.09	
450.265	-0.09	
450.698	-0.1	
451.132	-0.1	
451.565	-0.1	
451.998	-0.1	
452.431	-0.1	
452.864	-0.1	
453.297	-0.09	
453.73	-0.1	
454.163	-0.1	
454.596	-0.1	
455.029	-0.1	
455.462	-0.1	
455.895	-0.11	
456.327	-0.1	
456.76	-0.1	
457.193	-0.11	
457.625	-0.1	
458.058	-0.1	
458.49	-0.09	
458.923	-0.11	
459.355	-0.09	
459.787	-0.09	
460.22	-0.1	
460.652	-0.09	
461.084	-0.11	
461.516	-0.09	
461.948	-0.09	
462.381	-0.1	
462.813	-0.1	
463.245	-0.09	
463.676	-0.1	
464.108	-0.09	
464.54	-0.1	
464.972	-0.1	
465.404	-0.11	
465.835	-0.1	
466.267	-0.1	
466.699	-0.12	
467.13	-0.09	
467.562	-0.1	
467.993	-0.1	
468.424	-0.1	
468.856	-0.09	
469.287	-0.08	
469.718	-0.1	
470.15	-0.09	
470.581	-0.1	
471.012	-0.1	
471.443	-0.09	
471.874	-0.1	
472.305	-0.11	
472.736	-0.09	
473.167	-0.1	
473.598	-0.11	
474.028	-0.1	
474.459	-0.1	
474.89	-0.1	
475.32	-0.1	
475.751	-0.1	
476.182	-0.11	
476.612	-0.11	
477.043	-0.1	
477.473	-0.11	
477.903	-0.11	
478.334	-0.09	
478.764	-0.11	
479.194	-0.11	
479.624	-0.11	
480.054	-0.1	
480.484	-0.11	
480.914	-0.1	
481.344	-0.11	
481.774	-0.1	
482.204	-0.11	
482.634	-0.11	
483.064	-0.11	
483.494	-0.11	
483.923	-0.1	
484.353	-0.12	
484.782	-0.1	
485.212	-0.1	
485.642	-0.11	
486.071	-0.11	
486.5	-0.1	
486.93	-0.1	
487.359	-0.11	
487.788	-0.1	
488.217	-0.11	
488.647	-0.11	
489.076	-0.11	
489.505	-0.11	
489.934	-0.1	
490.363	-0.1	
490.792	-0.1	
491.221	-0.1	
491.649	-0.11	
492.078	-0.11	
492.507	-0.11	
492.936	-0.11	
493.364	-0.1	
493.793	-0.1	
494.221	-0.11	
494.65	-0.11	
495.078	-0.12	
495.507	-0.1	
495.935	-0.1	
496.363	-0.11	
496.791	-0.1	
497.22	-0.12	
497.648	-0.11	
498.076	-0.11	
498.504	-0.1	
498.932	-0.11	
499.36	-0.11	
499.788	-0.1	
500.216	-0.11	
500.643	-0.11	
501.071	-0.1	
501.499	-0.1	
501.927	-0.1	
502.354	-0.11	
502.782	-0.11	
503.209	-0.12	
503.637	-0.11	
504.064	-0.11	
504.491	-0.11	
504.919	-0.1	
505.346	-0.12	
505.773	-0.11	
506.2	-0.11	
506.628	-0.1	
507.055	-0.12	
507.482	-0.11	
507.909	-0.1	
508.335	-0.11	
508.762	-0.1	
509.189	-0.1	
509.616	-0.11	
510.043	-0.1	
510.469	-0.1	
510.896	-0.11	
511.323	-0.1	
511.749	-0.11	
512.176	-0.12	
512.602	-0.11	
513.028	-0.1	
513.455	-0.11	
513.881	-0.1	
514.307	-0.09	
514.733	-0.09	
515.16	-0.1	
515.586	-0.11	
516.012	-0.09	
516.438	-0.1	
516.864	-0.11	
517.29	-0.1	
517.715	-0.1	
518.141	-0.1	
518.567	-0.09	
518.993	-0.1	
519.418	-0.11	
519.844	-0.1	
520.269	-0.1	
520.695	-0.1	
521.12	-0.09	
521.546	-0.1	
521.971	-0.1	
522.396	-0.1	
522.822	-0.1	
523.247	-0.09	
523.672	-0.09	
524.097	-0.1	
524.522	-0.09	
524.947	-0.11	
525.372	-0.09	
525.797	-0.09	
526.222	-0.09	
526.647	-0.1	
527.071	-0.1	
527.496	-0.1	
527.921	-0.09	
528.345	-0.09	
528.77	-0.08	
529.194	-0.1	
529.619	-0.1	
530.043	-0.1	
530.468	-0.11	
530.892	-0.09	
531.316	-0.09	
531.74	-0.1	
532.164	-0.09	
532.589	-0.11	
533.013	-0.1	
533.437	-0.08	
533.861	-0.1	
534.284	-0.1	
534.708	-0.09	
535.132	-0.09	
535.556	-0.08	
535.98	-0.09	
536.403	-0.1	
536.827	-0.1	
537.25	-0.1	
537.674	-0.1	
538.097	-0.1	
538.521	-0.09	
538.944	-0.09	
539.367	-0.08	
539.791	-0.07	
540.214	-0.09	
540.637	-0.09	
541.06	-0.09	
541.483	-0.08	
541.906	-0.1	
542.329	-0.08	
542.752	-0.08	
543.175	-0.11	
543.598	-0.09	
544.02	-0.08	
544.443	-0.06	
544.866	-0.08	
545.288	-0.09	
545.711	-0.09	
546.133	-0.08	
546.556	-0.09	
546.978	-0.08	
547.4	-0.06	
547.823	-0.09	
548.245	-0.08	
548.667	-0.09	
549.089	-0.07	
549.511	-0.07	
549.933	-0.08	
550.355	-0.07	
550.777	-0.08	
551.199	-0.08	
551.621	-0.06	
552.043	-0.07	
552.465	-0.07	
552.886	-0.07	
553.308	-0.06	
553.729	-0.1	
554.151	-0.07	
554.572	-0.06	
554.994	-0.08	
555.415	-0.07	
555.837	-0.08	
556.258	-0.07	
556.679	-0.06	
557.1	-0.08	
557.521	-0.06	
557.942	-0.05	
558.363	-0.06	
558.784	-0.07	
559.205	-0.06	
559.626	-0.06	
560.047	-0.05	
560.468	-0.07	
560.888	-0.06	
561.309	-0.07	
561.73	-0.07	
562.15	-0.06	
562.571	-0.07	
562.991	-0.06	
563.412	-0.06	
563.832	-0.04	
564.252	-0.05	
564.673	-0.04	
565.093	-0.05	
565.513	-0.06	
565.933	-0.05	
566.353	-0.04	
566.773	-0.05	
567.193	-0.06	
567.613	-0.04	
568.033	-0.04	
568.452	-0.03	
568.872	-0.05	
569.292	-0.06	
569.711	-0.07	
570.131	-0.06	
570.551	-0.05	
570.97	-0.05	
571.389	-0.05	
571.809	-0.06	
572.228	-0.06	
572.647	-0.05	
573.067	-0.05	
573.486	-0.04	
573.905	-0.04	
574.324	-0.05	
574.743	-0.05	
575.162	-0.04	
575.581	-0.06	
576	-0.04	
576.419	-0.05	
576.837	-0.03	
577.256	-0.04	
577.675	-0.04	
578.093	-0.05	
578.512	-0.05	
578.93	-0.04	
579.349	-0.05	
579.767	-0.03	
580.185	-0.05	
580.604	-0.04	
581.022	-0.03	
581.44	-0.04	
581.858	-0.05	
582.276	-0.04	
582.694	-0.04	
583.112	-0.04	
583.53	-0.04	
583.948	-0.03	
584.366	-0.02	
584.784	-0.02	
585.201	-0.04	
585.619	-0.02	
586.037	-0.03	
586.454	-0.02	
586.872	-0.03	
587.289	-0.02	
587.707	-0.02	
588.124	-0.02	
588.541	-0.01	
588.958	-0.01	
589.376	-0.01	
589.793	-0.01	
590.21	-0.01	
590.627	-0	
591.044	-0.01	
591.461	0.02	
591.878	-0.01	
592.294	0.02	
592.711	-0.01	
593.128	-0.01	
593.545	0.01	
593.961	0.01	
594.378	0.01	
594.794	0	
595.211	0.01	
595.627	0.01	
596.043	0.03	
596.46	0.02	
596.876	0.02	
597.292	0.04	
597.708	0.02	
598.124	0.03	
598.54	0.02	
598.956	0.02	
599.372	0.02	
599.788	0.03	
600.204	0.03	
600.62	0.04	
601.035	0.03	
601.451	0.02	
601.867	0.04	
602.282	0.04	
602.698	0.04	
603.113	0.05	
603.529	0.06	
603.944	0.04	
604.359	0.06	
604.774	0.06	
605.19	0.06	
605.605	0.06	
606.02	0.06	
606.435	0.05	
606.85	0.08	
607.265	0.07	
607.68	0.06	
608.094	0.06	
608.509	0.06	
608.924	0.07	
609.338	0.1	
609.753	0.08	
610.168	0.09	
610.582	0.09	
610.997	0.1	
611.411	0.1	
611.825	0.1	
612.24	0.12	
612.654	0.11	
613.068	0.1	
613.482	0.11	
613.896	0.1	
614.31	0.12	
614.724	0.12	
615.138	0.11	
615.552	0.11	
615.966	0.12	
616.379	0.13	
616.793	0.13	
617.207	0.11	
617.62	0.11	
618.034	0.14	
618.447	0.14	
618.861	0.16	
619.274	0.14	
619.687	0.15	
620.101	0.16	
620.514	0.16	
620.927	0.16	
621.34	0.17	
621.753	0.18	
622.166	0.17	
622.579	0.17	
622.992	0.16	
623.405	0.17	
623.817	0.19	
624.23	0.18	
624.643	0.19	
625.055	0.19	
625.468	0.17	
625.88	0.2	
626.293	0.21	
626.705	0.21	
627.118	0.24	
627.53	0.22	
627.942	0.21	
628.354	0.23	
628.766	0.23	
629.179	0.23	
629.591	0.22	
630.003	0.24	
630.414	0.24	
630.826	0.24	
631.238	0.26	
631.65	0.27	
632.061	0.28	
632.473	0.26	
632.885	0.28	
633.296	0.27	
633.708	0.31	
634.119	0.26	
634.53	0.32	
634.942	0.33	
635.353	0.31	
635.764	0.31	
636.175	0.29	
636.586	0.32	
636.998	0.34	
637.408	0.3	
637.819	0.33	
638.23	0.29	
638.641	0.31	
639.052	0.39	
639.463	0.33	
639.873	0.33	
640.284	0.34	
640.694	0.35	
641.105	0.37	
641.515	0.35	
641.926	0.36	
642.336	0.38	
642.746	0.36	
643.157	0.34	
643.567	0.37	
643.977	0.41	
644.387	0.4	
644.797	0.43	
645.207	0.4	
645.617	0.37	
646.026	0.41	
646.436	0.4	
646.846	0.44	
647.256	0.46	
647.665	0.39	
648.075	0.41	
648.484	0.45	
648.894	0.44	
649.303	0.42	
649.713	0.43	
650.122	0.41	
650.531	0.45	
650.94	0.45	
651.349	0.45	
651.758	0.44	
652.167	0.47	
652.576	0.46	
652.985	0.47	
653.394	0.47	
653.803	0.45	
654.212	0.49	
654.62	0.49	
655.029	0.49	
655.437	0.5	
655.846	0.46	
656.254	0.44	
656.663	0.43	
657.071	0.46	
657.479	0.44	
657.888	0.45	
658.296	0.45	
658.704	0.5	
659.112	0.48	
659.52	0.52	
659.928	0.53	
660.336	0.53	
660.744	0.59	
661.152	0.57	
661.559	0.56	
661.967	0.59	
662.375	0.6	
662.782	0.54	
663.19	0.63	
663.597	0.54	
664.005	0.62	
664.412	0.71	
664.819	0.6	
665.226	0.64	
665.634	0.69	
666.041	0.68	
666.448	0.63	
666.855	0.67	
667.262	0.69	
667.669	0.68	
668.075	0.67	
668.482	0.64	
668.889	0.65	
669.296	0.61	
669.702	0.68	
670.109	0.67	
670.515	0.68	
670.922	0.78	
671.328	0.66	
671.734	0.8	
672.141	0.75	
672.547	0.65	
672.953	0.72	
673.359	0.73	
673.765	0.74	
674.171	0.74	
674.577	0.76	
674.983	0.77	
675.389	0.69	
675.795	0.77	
676.201	0.76	
676.606	0.73	
677.012	0.81	
677.417	0.84	
677.823	0.8	
678.228	0.78	
678.634	0.81	
679.039	0.75	
679.444	0.81	
679.849	0.82	
680.255	0.75	
680.66	0.89	
681.065	0.87	
681.47	0.82	
681.875	0.82	
682.28	0.92	
682.684	0.81	
683.089	0.78	
683.494	0.88	
683.899	0.85	
684.303	0.84	
684.708	0.87	
685.112	0.78	
685.517	0.98	
685.921	0.86	
686.325	0.85	
686.729	0.91	
687.134	0.81	
687.538	0.89	
687.942	0.91	
688.346	0.87	
688.75	0.91	
689.154	0.99	
689.558	0.97	
689.961	0.87	
690.365	0.89	
690.769	0.97	
691.173	0.89	
691.576	0.88	
691.98	0.95	
692.383	0.95	
692.786	0.91	
693.19	0.95	
693.593	0.97	
693.996	0.89	
694.399	1.01	
694.803	1.09	
695.206	0.91	
695.609	1.11	
696.012	0.98	
696.414	1.06	
696.817	1.02	
697.22	0.99	
697.623	1.09	
698.025	1.06	
698.428	1.06	
698.831	1.02	
699.233	1	
699.636	1	
700.038	1.12	
700.44	0.96	
700.842	1.29	
701.245	1.18	
701.647	1.18	
702.049	1.17	
702.451	1.07	
702.853	1.03	
703.255	1.09	
703.657	1.06	
704.058	1.11	
704.46	1.13	
704.862	1.26	
705.264	1.01	
705.665	1.15	
706.067	1.12	
706.468	1.19	
706.869	1.2	
707.271	1.39	
707.672	1.11	
708.073	1.18	
708.474	1.08	
708.876	1.13	
709.277	1.25	
709.678	1.16	
710.079	1.14	
710.479	1.12	
710.88	1.09	
711.281	1.19	
711.682	1.09	
712.082	1.25	
712.483	1.31	
712.883	1.22	
713.284	1.41	
713.684	1.19	
714.085	1.36	
714.485	1.23	
714.885	1.39	
715.285	1.35	
715.686	1.25	
716.086	1.26	
716.486	1.22	
716.886	1.13	
717.285	1.06	
717.685	1.12	
718.085	1.45	
718.485	1.22	
718.884	1.2	
719.284	1.29	
719.684	1.09	
720.083	1.15	
720.483	1.26	
720.882	1.25	
721.281	1.25	
721.68	1.18	
722.08	1.22	
722.479	-0	
722.878	1.19	
723.277	1.58	
723.676	1.21	
724.075	1.33	
724.474	1.49	
724.872	1.37	
725.271	1.37	
725.67	1.11	
726.068	1.29	
726.467	1.28	
726.865	1.49	
727.264	1.78	
727.662	1.36	
728.061	1.62	
728.459	1.25	
728.857	1.51	
729.255	1.54	
729.653	1.53	
730.051	2.06	
730.449	1.3	
730.847	1.29	
731.245	1.4	
731.643	1.47	
732.041	1.6	
732.438	1.5	
732.836	1.65	
733.233	1.24	
733.631	1.38	
734.028	1.22	
734.426	1.35	
734.823	1.18	
735.22	1.36	
735.617	1.63	
736.015	1.52	
736.412	1.42	
736.809	1.48	
737.206	1.42	
737.603	1.86	
737.999	1.59	
738.396	1.37	
738.793	1.3	
739.19	1.57	
739.586	1.3	
739.983	1.38	
740.379	1.9	
740.776	1.51	
741.172	1.47	
741.568	1.4	
741.965	2.07	
742.361	1.78	
742.757	1.44	
743.153	1.57	
743.549	1.25	
743.945	1.22	
744.341	1.36	
744.737	1.53	
745.133	1.52	
745.528	1.73	
745.924	1.69	
746.32	1.45	
746.715	1.43	
747.111	1.42	
747.506	1.17	
747.901	1.31	
748.297	1.51	
748.692	1.46	
749.087	1.51	
749.482	1.37	
749.877	1.43	
750.272	1.75	
750.667	1.33	
751.062	1.24	
751.457	2.21	
751.852	1.82	
752.247	1.6	
752.641	1.4	
753.036	1.64	
753.43	1.35	
753.825	1.53	
754.219	1.62	
754.614	1.23	
755.008	2.09	
755.402	1.38	
755.796	1.6	
756.19	1.21	
756.584	1.47	
756.978	1.53	
757.372	1.5	
757.766	1.54	
758.16	1.6	
758.554	1.72	
758.948	1.66	
759.341	1.91	
759.735	1.42	
760.128	1.57	
760.522	4.4	
760.915	1.75	
761.308	1.49	
761.702	1.38	
762.095	1.47	
762.488	1.72	
762.881	1.8	
763.274	1.58	
763.667	1.68	
764.06	1.63	
764.453	1.56	
764.846	4.42	
765.239	1.67	
765.631	2.17	
766.024	1.46	
766.416	1.45	
766.809	1.5	
767.201	1.42	
767.594	1.76	
767.986	1.54	
768.378	-0	
768.77	1.51	
769.163	1.73	
769.555	1.46	
769.947	2.31	
770.339	2.03	
770.73	1.83	
771.122	-0	
771.514	1.92	
771.906	1.46	
772.297	1.89	
772.689	2.14	
773.081	-0	
773.472	1.92	
773.863	1.75	
774.255	1.53	
774.646	2.4	
775.037	1.99	
775.428	2.23	
775.82	1.24	
776.211	1.64	
776.602	2.15	
776.993	1.3	
777.383	1.1	
777.774	1.4	
778.165	-0	
778.556	1.24	
778.946	-0	
779.337	2.01	
779.727	1.66	
780.118	1.73	
780.508	1.72	
780.898	1.39	
781.289	1.44	
781.679	1.58	
782.069	-0	
782.459	4.33	
782.849	1.38	
783.239	1.77	
783.629	1.77	
784.019	1.63	
784.408	1.62	
784.798	-0	
785.188	1.65	
785.577	1.34	
785.967	-0	
786.356	1.58	
786.746	1.61	
787.135	1.49	
787.524	2.36	
787.914	-0	
788.303	2.44	
788.692	2.24	
789.081	1.43	
789.47	2.22	
789.859	1.67	
790.248	1.71	
790.636	2.02	
791.025	1.67	
791.414	1.32	
791.802	1.78	
792.191	-0	
792.579	-0	
792.968	1.7	
793.356	1.73	
793.744	-0	
794.133	1.87	
794.521	-0	
794.909	1.46	
795.297	1.47	
795.685	1.98	
796.073	1.66	
796.461	1.67	
796.848	1.47	
797.236	1.64	
797.624	1.27	
798.011	2.06	
798.399	1.85	
798.787	1.52	
799.174	1.39	
799.561	1.74	
799.949	1.94	
800.336	1.47	
800.723	1.69	
801.11	1.73	
801.497	1.6	
801.884	1.94	
802.271	2.38	
802.658	4.2	
803.045	1.58	
803.432	1.71	
803.818	1.14	
804.205	2.06	
804.591	1.47	
804.978	1.27	
805.364	1.5	
805.751	1.31	
806.137	1.69	
806.523	1.5	
806.91	1.55	
807.296	2.45	
807.682	1.97	
808.068	1.32	
808.454	1.81	
808.84	1.34	
809.225	1.4	
809.611	1.27	
809.997	-0	
810.382	1.52	
810.768	1.27	
811.153	2.38	
811.539	1.84	
811.924	1.82	
812.31	1.94	
812.695	2.25	
813.08	1.41	
813.465	1.57	
813.85	2.5	
814.235	2.16	
814.62	2.24	
815.005	1.48	
815.39	1.38	
815.775	1.66	
816.159	1.32	
816.544	1.1	
816.929	1.82	
817.313	1.26	
817.697	1.58	
818.082	1.24	
818.466	1.54	
818.85	2.27	
819.235	1.53	
819.619	1.55	
820.003	1.35	
820.387	1.56	
820.771	-0	
821.155	-0	
821.538	1.71	
821.922	1.35	
822.306	1.87	
822.689	-0	
823.073	1.84	
823.457	1.9	
823.84	2.02	
824.223	-0	
824.607	1.37	
824.99	1.41	
825.373	1.55	
825.756	1.55	
826.139	1.35	
826.522	1.6	
826.905	2.03	
827.288	1.83	
827.671	1.78	
828.054	2.11	
828.436	2.53	
828.819	2.2	
829.201	1.61	
829.584	1.31	
829.966	1.35	
830.349	-0	
830.731	1.25	
831.113	1.31	
831.495	1.27	
831.878	1.24	
832.26	1.22	
832.642	1.21	
833.024	-0	
833.405	-0	
833.787	1.61	
834.169	1.41	
834.551	-0	
834.932	4.12	
835.314	1.22	
835.695	-0	
836.077	1.22	
836.458	1.75	
836.839	1.34	
837.22	2.42	
837.602	1.94	
837.983	1.34	
838.364	1.34	
838.745	-0	
839.126	1.36	
839.506	2.12	
839.887	1.4	
840.268	1.43	
840.649	1.34	
841.029	-0	
841.41	1.49	
841.79	1.72	
842.171	1.48	
842.551	1.73	
842.931	1.43	
843.311	1.22	
843.691	1.34	
844.072	1.4	
844.452	1.32	
844.832	1.62	
845.211	1.92	
845.591	1.67	
845.971	-0	
846.351	1.46	
846.73	1.71	
847.11	1.23	
847.489	1.69	
847.869	1.38	
848.248	1.25	
848.627	1.65	
849.007	1.29	
849.386	1.55	
849.765	2.26	
850.144	1.3	
850.523	1.4	
850.902	1.5	
851.281	1.43	
851.66	1.33	
852.038	1.73	
852.417	-0	
852.796	2.09	
853.174	-0	
853.553	1.5	
853.931	1.34	
854.309	-0	
854.688	2.84	
855.066	1.67	
855.444	1.72	
855.822	1.57	
856.2	1.67	
856.578	1.09	
856.956	-0	
857.334	-0	
857.712	1.35	
858.089	1.15	
858.467	1.58	
858.844	1.63	
859.222	1.46	
859.599	1.81	
859.977	-0	
860.354	1.12	
860.731	1.84	
861.109	1.44	
861.486	1.41	
861.863	1.12	
862.24	1.63	
862.617	-0	
862.993	1.88	
863.37	1.57	
863.747	1.24	
864.124	1.12	
864.5	1.82	
864.877	1.84	
865.253	1.35	
865.63	-0	
866.006	2.33	
866.382	1.27	
866.758	1.07	
867.135	1.34	
867.511	4.02	
867.887	1.17	
868.263	2.51	
868.639	1.85	
869.014	1.55	
869.39	-0	
869.766	1.27	
870.141	0.97	
870.517	1.52	
870.892	-0	
871.268	1.33	
871.643	2.1	
872.019	1.1	
872.394	1.61	
872.769	1.66	
873.144	1.7	
873.519	1.53	
873.894	1.08	
874.269	1.86	
874.644	1.74	
875.019	1.37	
875.393	1.65	
875.768	-0	
876.143	1.57	
876.517	1.15	
876.891	1.34	
877.266	1.47	
877.64	2.46	
878.014	1.18	
878.389	1.52	
878.763	1.47	
879.137	0.96	
879.511	1.58	
879.885	1	
880.259	3.99	
880.632	1.1	
881.006	1.07	
881.38	1.18	
881.753	1.73	
882.127	1.74	
882.5	2.47	
882.874	2.03	
883.247	1.31	
883.62	1.11	
883.994	1.89	
884.367	-0	
884.74	3.97	
885.113	1.24	
885.486	1.38	
885.859	1.14	
886.231	1.3	
886.604	1.14	
886.977	1.08	
887.349	-0	
887.722	1.21	
888.094	1.34	
888.467	1.42	
888.839	1.55	
889.211	1.07	
889.584	-0	
889.956	1.14	
890.328	1.9	
890.7	2.11	
891.072	1.9	
891.444	1.52	
891.816	1.5	
892.187	1.34	
892.559	1.26	
892.931	1.12	
893.302	1.13	
893.674	-0	
894.045	-0	
894.416	0.95	
894.788	1.44	
895.159	1.75	
895.53	0.88	
895.901	-0	
896.272	1.1	
896.643	1.21	
897.014	1.09	
897.385	1.53	
897.756	1.07	
898.126	1.09	
898.497	2.7	
898.867	1.44	
899.238	1.3	
899.608	1.96	
899.979	1.73	
900.349	2.35	
900.719	1.32	
901.089	0.82	
901.459	1.56	
901.829	1.27	
902.199	1.64	
902.569	-0	
902.939	-0	
903.309	-0	
903.679	-0	
904.048	1.33	
904.418	1.23	
904.787	1.81	
905.157	1.12	
905.526	0.89	
905.895	1.4	
906.265	-0	
906.634	-0	
907.003	0.88	
907.372	0.89	
907.741	1.16	
908.11	1.56	
908.478	1.31	
908.847	1	
909.216	1.21	
909.585	2.01	
909.953	0.95	
910.322	-0	
910.69	0.73	
911.058	1.36	
911.427	-0	
911.795	1.43	
912.163	-0	
912.531	1.12	
912.899	0.79	
913.267	1.13	
913.635	-0	
914.003	1.5	
914.37	1.16	
914.738	1.02	
915.106	-0	
915.473	-0	
915.841	1.3	
916.208	-0	
916.575	1.16	
916.943	-0	
917.31	-0	
917.677	1.35	
918.044	1.24	
918.411	0.65	
918.778	0.85	
919.145	0.84	
919.512	0.66	
919.879	-0	
920.245	0.58	
920.612	0.83	
920.978	-0	
921.345	-0	
921.711	-0	
922.078	0.62	
922.444	-0	
922.81	0.6	
923.176	0.85	
923.542	0.73	
923.908	0.54	
924.274	0.99	
924.64	3.49	
925.006	-0	
925.371	1.18	
925.737	-0	
926.103	0.7	
926.468	2.28	
926.834	0.57	
927.199	0.71	
927.564	0.85	
927.93	0.64	
928.295	0.97	
928.66	0.94	
929.025	0.93	
929.39	0.87	
929.755	-0	
930.12	-0	
930.484	0.66	
930.849	0.98	
931.214	1.22	
931.578	0.52	
931.943	0.79	
932.307	0.77	
932.672	1.26	
933.036	0.48	
933.4	0.48	
933.764	-0	
934.128	0.74	
934.492	0.47	
934.856	0.86	
935.22	0.8	
935.584	0.72	
935.948	-0	
936.311	1.01	
936.675	0.91	
937.039	0.88	
937.402	0.79	
937.765	-0	
938.129	0.99	
938.492	-0	
938.855	0.72	
939.218	0.46	
939.581	0.64	
939.944	0.6	
940.307	0.85	
940.67	-0	
941.033	0.58	
941.396	-0	
941.758	-0	
942.121	0.69	
942.483	0.6	
942.846	1.28	
943.208	-0	
943.571	-0	
943.933	0.72	
944.295	0.78	
944.657	0.71	
945.019	0.38	
945.381	0.48	
945.743	0.45	
946.105	0.82	
946.467	-0	
946.828	-0	
947.19	0.94	
947.551	0.74	
947.913	1.39	
948.274	0.79	
948.636	0.72	
948.997	0.51	
949.358	0.54	
949.719	0.56	
950.08	0.85	
950.441	0.72	
950.802	0.32	
951.163	0.48	
951.524	0.4	
951.885	0.71	
952.245	0.73	
952.606	0.47	
952.966	0.43	
953.327	0.53	
953.687	0.95	
954.047	0.72	
954.408	0.64	
954.768	-0	
955.128	-0	
955.488	-0	
955.848	0.39	
956.208	0.37	
956.568	0.89	
956.927	-0	
957.287	1.22	
957.647	0.91	
958.006	-0	
958.366	0.36	
958.725	0.51	
959.084	0.47	
959.444	1.21	
959.803	-0	
960.162	0.83	
960.521	1.51	
960.88	0.88	
961.239	0.69	
961.598	0.36	
961.957	-0	
962.315	0.47	
962.674	-0	
963.033	-0	
963.391	-0	
963.75	0.23	
964.108	0.46	
964.466	0.71	
964.824	0.93	
965.183	-0	
965.541	0.32	
965.899	0.34	
966.257	0.57	
966.614	-0	
966.972	-0	
967.33	0.98	
967.688	0.66	
968.045	0.4	
968.403	0.37	
968.76	-0	
969.118	1.11	
969.475	-0	
969.832	0.61	
970.189	0.37	
970.546	0.35	
970.903	-0	
971.26	-0	
971.617	0.04	
971.974	1.08	
972.331	3.02	
972.688	0.06	
973.044	1.29	
973.401	0.65	
973.757	-0.41	
974.114	0.57	
974.47	0.28	
974.826	0.27	
975.182	0.26	
975.538	0.21	
975.895	1.19	
976.251	-0	
976.606	-0	
976.962	0.54	
977.318	0.06	
977.674	0.43	
978.029	0.61	
978.385	0.16	
978.74	-0	
979.096	0.54	
979.451	-0	
979.806	0.12	
980.162	0.1	
980.517	-0	
980.872	-0.26	
981.227	-0	
981.582	0.31	
981.937	-0.02	
982.291	-0	
982.646	-0.08	
983.001	-0	
983.355	0.35	
983.71	-0	
984.064	-0	
984.419	0.11	
984.773	-0	
985.127	0.07	
985.481	-0.01	
985.835	0.55	
986.189	0.59	
986.543	1.37	
986.897	0.38	
987.251	-0	
987.605	0.42	
987.958	-0	
988.312	-0	
988.665	-0	
989.019	-0	
989.372	0.34	
989.725	-0.42	
990.079	0.02	
990.432	0.18	
990.785	0.72	
991.138	1.1	
991.491	-0	
991.844	-0	
992.197	0.33	
992.549	-0	
992.902	-0.33	
993.254	0.25	
993.607	0.03	
993.959	0.38	
994.312	-0	
994.664	-0	
995.016	-0	
995.368	0.27	
995.721	0.61	
996.073	0.51	
996.425	0.46	
996.776	0.8	
997.128	0.2	
997.48	0.3	
997.832	0.2	
998.183	-0	
998.535	0.24	
998.886	0.11	
999.237	0.07	
999.589	0.33	
999.94	0.17	
1000.291	-2.05	
1000.642	-0.21	
1000.993	0.38	
1001.344	0.3	
1001.695	0.61	
1002.046	0.77	
1002.397	0.06	
1002.747	0.13	
1003.098	-0	
1003.448	0.2	
1003.799	0.17	
1004.149	0.1	
1004.499	2.56	
1004.85	0.43	
1005.2	0.53	
1005.55	0.11	
1005.9	0.74	
1006.25	0.35	
1006.6	1.17	
1006.949	0.3	
1007.299	0.03	
1007.649	0.19	
1007.998	-0.13	
1008.348	0.35	
1008.697	-0.13	
1009.047	0.59	
1009.396	0.25	
1009.745	0.26	
1010.094	0.13	
1010.443	-2.09	
1010.792	0.14	
1011.141	-0.03	
1011.49	0.79	
1011.839	0.03	
1012.188	-0.71	
1012.536	-0	
1012.885	-0.25	
1013.233	-0	
1013.582	-0	
1013.93	0.2	
1014.278	-0.41	
1014.627	-0.05	
1014.975	-0.18	
1015.323	0.16	
1015.671	-0.2	
1016.019	-0	
1016.367	-0.36	
1016.714	0.28	
1017.062	-0	
1017.41	-0.19	
1017.757	-0.13	
1018.105	0.85	
1018.452	0.19	
1018.8	0.68	
1019.147	0.37	
1019.494	-0	
1019.841	0.03	
1020.188	-0.03	
1020.535	0.4	
1020.882	-1	
1021.229	-0.25	
1021.576	-0.26	
1021.922	-0.04	
1022.269	-0.17	
1022.615	-0	
1022.962	-0	
1023.308	-0	
1023.655	-0	
