Absorbance:209		
188.012	-0	
188.47	-0	
188.927	-0	
189.385	0.6	
189.842	0.43	
190.3	0.19	
190.757	0.45	
191.215	-0	
191.672	-0.04	
192.129	-0	
192.586	-0.31	
193.044	-0	
193.501	-0.26	
193.958	0.21	
194.415	-0	
194.872	-1.54	
195.329	0.07	
195.787	-0	
196.244	0.71	
196.7	0.83	
197.157	-0.21	
197.614	0.44	
198.071	-0	
198.528	-0.26	
198.985	0.07	
199.441	0.02	
199.898	-0.07	
200.355	0.04	
200.812	0.07	
201.268	-0.09	
201.725	-0.01	
202.181	0.01	
202.638	-0.07	
203.094	-0.22	
203.551	0.03	
204.007	0.06	
204.463	-0.01	
204.92	0.11	
205.376	0.16	
205.832	0.16	
206.288	0.1	
206.744	0.04	
207.201	0.03	
207.657	-0.06	
208.113	-0.08	
208.569	0.02	
209.025	0.06	
209.481	0.13	
209.937	-0.09	
210.392	0.01	
210.848	0.07	
211.304	0.02	
211.76	0.03	
212.215	-0.02	
212.671	0.17	
213.127	0.22	
213.582	0.17	
214.038	0.04	
214.494	0.14	
214.949	0.17	
215.404	0.22	
215.86	0.14	
216.315	0.15	
216.771	0.16	
217.226	0.08	
217.681	0.12	
218.136	0.11	
218.592	0.09	
219.047	0.09	
219.502	0.06	
219.957	0.07	
220.412	0.03	
220.867	0.04	
221.322	0.02	
221.777	-0	
222.232	-0	
222.687	-0.01	
223.142	-0.01	
223.596	-0.03	
224.051	-0.03	
224.506	-0.04	
224.96	-0.04	
225.415	-0.06	
225.87	-0.05	
226.324	-0.05	
226.779	-0.07	
227.233	-0.08	
227.688	-0.07	
228.142	-0.08	
228.597	-0.08	
229.051	-0.08	
229.505	-0.08	
229.959	-0.08	
230.414	-0.09	
230.868	-0.08	
231.322	-0.08	
231.776	-0.08	
232.23	-0.09	
232.684	-0.09	
233.138	-0.1	
233.592	-0.1	
234.046	-0.1	
234.5	-0.1	
234.954	-0.1	
235.408	-0.1	
235.861	-0.1	
236.315	-0.1	
236.769	-0.11	
237.222	-0.11	
237.676	-0.11	
238.13	-0.12	
238.583	-0.1	
239.037	-0.11	
239.49	-0.12	
239.944	-0.11	
240.397	-0.12	
240.85	-0.12	
241.304	-0.12	
241.757	-0.11	
242.21	-0.12	
242.663	-0.13	
243.117	-0.12	
243.57	-0.13	
244.023	-0.13	
244.476	-0.12	
244.929	-0.13	
245.382	-0.13	
245.835	-0.13	
246.288	-0.13	
246.741	-0.14	
247.193	-0.14	
247.646	-0.13	
248.099	-0.14	
248.552	-0.14	
249.004	-0.15	
249.457	-0.14	
249.909	-0.14	
250.362	-0.15	
250.814	-0.15	
251.267	-0.15	
251.719	-0.15	
252.172	-0.15	
252.624	-0.16	
253.076	-0.15	
253.529	-0.16	
253.981	-0.17	
254.433	-0.16	
254.885	-0.17	
255.337	-0.17	
255.79	-0.16	
256.242	-0.16	
256.694	-0.17	
257.146	-0.17	
257.598	-0.17	
258.049	-0.17	
258.501	-0.17	
258.953	-0.18	
259.405	-0.17	
259.857	-0.18	
260.308	-0.18	
260.76	-0.18	
261.212	-0.18	
261.663	-0.18	
262.115	-0.18	
262.566	-0.18	
263.018	-0.19	
263.469	-0.18	
263.92	-0.18	
264.372	-0.19	
264.823	-0.19	
265.274	-0.19	
265.726	-0.19	
266.177	-0.18	
266.628	-0.19	
267.079	-0.19	
267.53	-0.19	
267.981	-0.19	
268.432	-0.19	
268.883	-0.19	
269.334	-0.19	
269.785	-0.19	
270.236	-0.19	
270.687	-0.19	
271.137	-0.19	
271.588	-0.19	
272.039	-0.19	
272.489	-0.19	
272.94	-0.2	
273.391	-0.19	
273.841	-0.19	
274.292	-0.19	
274.742	-0.2	
275.192	-0.2	
275.643	-0.2	
276.093	-0.2	
276.543	-0.19	
276.994	-0.19	
277.444	-0.2	
277.894	-0.2	
278.344	-0.2	
278.794	-0.2	
279.244	-0.2	
279.694	-0.2	
280.144	-0.2	
280.594	-0.2	
281.044	-0.2	
281.494	-0.19	
281.944	-0.19	
282.394	-0.2	
282.843	-0.2	
283.293	-0.2	
283.743	-0.2	
284.192	-0.2	
284.642	-0.2	
285.091	-0.2	
285.541	-0.2	
285.99	-0.2	
286.44	-0.2	
286.889	-0.2	
287.338	-0.2	
287.788	-0.2	
288.237	-0.19	
288.686	-0.2	
289.135	-0.2	
289.584	-0.19	
290.034	-0.2	
290.483	-0.2	
290.932	-0.19	
291.381	-0.2	
291.83	-0.2	
292.278	-0.2	
292.727	-0.2	
293.176	-0.2	
293.625	-0.2	
294.074	-0.2	
294.522	-0.21	
294.971	-0.2	
295.42	-0.2	
295.868	-0.2	
296.317	-0.2	
296.765	-0.2	
297.214	-0.21	
297.662	-0.21	
298.11	-0.2	
298.559	-0.21	
299.007	-0.2	
299.455	-0.21	
299.903	-0.21	
300.352	-0.21	
300.8	-0.21	
301.248	-0.21	
301.696	-0.21	
302.144	-0.21	
302.592	-0.21	
303.04	-0.21	
303.488	-0.21	
303.936	-0.21	
304.383	-0.21	
304.831	-0.21	
305.279	-0.21	
305.727	-0.21	
306.174	-0.21	
306.622	-0.21	
307.069	-0.21	
307.517	-0.22	
307.964	-0.21	
308.412	-0.21	
308.859	-0.22	
309.306	-0.21	
309.754	-0.21	
310.201	-0.21	
310.648	-0.21	
311.096	-0.22	
311.543	-0.21	
311.99	-0.22	
312.437	-0.22	
312.884	-0.21	
313.331	-0.22	
313.778	-0.22	
314.225	-0.23	
314.672	-0.22	
315.118	-0.22	
315.565	-0.23	
316.012	-0.23	
316.459	-0.22	
316.905	-0.22	
317.352	-0.22	
317.798	-0.22	
318.245	-0.23	
318.691	-0.23	
319.138	-0.23	
319.584	-0.23	
320.031	-0.22	
320.477	-0.23	
320.923	-0.23	
321.37	-0.23	
321.816	-0.23	
322.262	-0.22	
322.708	-0.22	
323.154	-0.22	
323.6	-0.21	
324.046	-0.21	
324.492	-0.21	
324.938	-0.22	
325.384	-0.22	
325.83	-0.22	
326.276	-0.22	
326.721	-0.23	
327.167	-0.22	
327.613	-0.22	
328.058	-0.22	
328.504	-0.22	
328.949	-0.22	
329.395	-0.22	
329.84	-0.21	
330.286	-0.22	
330.731	-0.22	
331.177	-0.22	
331.622	-0.22	
332.067	-0.22	
332.512	-0.22	
332.957	-0.21	
333.403	-0.22	
333.848	-0.22	
334.293	-0.21	
334.738	-0.21	
335.183	-0.22	
335.628	-0.22	
336.072	-0.21	
336.517	-0.21	
336.962	-0.2	
337.407	-0.21	
337.852	-0.21	
338.296	-0.21	
338.741	-0.21	
339.185	-0.21	
339.63	-0.21	
340.074	-0.2	
340.519	-0.2	
340.963	-0.2	
341.408	-0.2	
341.852	-0.2	
342.296	-0.19	
342.741	-0.19	
343.185	-0.19	
343.629	-0.19	
344.073	-0.19	
344.517	-0.19	
344.961	-0.19	
345.405	-0.2	
345.849	-0.19	
346.293	-0.18	
346.737	-0.18	
347.181	-0.18	
347.624	-0.19	
348.068	-0.18	
348.512	-0.18	
348.955	-0.18	
349.399	-0.17	
349.843	-0.18	
350.286	-0.16	
350.73	-0.17	
351.173	-0.17	
351.617	-0.16	
352.06	-0.16	
352.503	-0.16	
352.946	-0.16	
353.39	-0.15	
353.833	-0.15	
354.276	-0.13	
354.719	-0.14	
355.162	-0.14	
355.605	-0.14	
356.048	-0.14	
356.491	-0.12	
356.934	-0.13	
357.377	-0.12	
357.82	-0.12	
358.262	-0.12	
358.705	-0.1	
359.148	-0.1	
359.59	-0.1	
360.033	-0.1	
360.475	-0.08	
360.918	-0.08	
361.36	-0.08	
361.803	-0.07	
362.245	-0.07	
362.688	-0.05	
363.13	-0.06	
363.572	-0.04	
364.014	-0.03	
364.456	-0.03	
364.899	-0.01	
365.341	-0.01	
365.783	-0	
366.225	0.01	
366.667	0.01	
367.108	0.03	
367.55	0.03	
367.992	0.04	
368.434	0.05	
368.876	0.06	
369.317	0.07	
369.759	0.08	
370.201	0.1	
370.642	0.1	
371.084	0.11	
371.525	0.13	
371.966	0.14	
372.408	0.15	
372.849	0.17	
373.29	0.17	
373.732	0.18	
374.173	0.2	
374.614	0.22	
375.055	0.22	
375.496	0.23	
375.937	0.24	
376.378	0.25	
376.819	0.27	
377.26	0.27	
377.701	0.29	
378.142	0.3	
378.583	0.31	
379.023	0.33	
379.464	0.35	
379.905	0.34	
380.345	0.36	
380.786	0.37	
381.226	0.39	
381.667	0.39	
382.107	0.41	
382.548	0.41	
382.988	0.43	
383.428	0.44	
383.868	0.46	
384.309	0.46	
384.749	0.47	
385.189	0.5	
385.629	0.49	
386.069	0.48	
386.509	0.51	
386.949	0.5	
387.389	0.5	
387.829	0.52	
388.268	0.54	
388.708	0.55	
389.148	0.54	
389.588	0.55	
390.027	0.57	
390.467	0.55	
390.906	0.57	
391.346	0.56	
391.785	0.57	
392.225	0.58	
392.664	0.58	
393.103	0.58	
393.543	0.58	
393.982	0.57	
394.421	0.59	
394.86	0.57	
395.299	0.57	
395.738	0.56	
396.177	0.58	
396.616	0.58	
397.055	0.58	
397.494	0.59	
397.933	0.57	
398.372	0.57	
398.81	0.58	
399.249	0.57	
399.688	0.57	
400.126	0.56	
400.565	0.54	
401.004	0.54	
401.442	0.55	
401.88	0.53	
402.319	0.54	
402.757	0.53	
403.195	0.53	
403.634	0.5	
404.072	0.51	
404.51	0.5	
404.948	0.51	
405.386	0.49	
405.824	0.47	
406.262	0.46	
406.7	0.47	
407.138	0.44	
407.576	0.45	
408.014	0.44	
408.452	0.43	
408.889	0.43	
409.327	0.42	
409.765	0.4	
410.202	0.4	
410.64	0.38	
411.077	0.39	
411.515	0.38	
411.952	0.35	
412.389	0.34	
412.827	0.34	
413.264	0.36	
413.701	0.32	
414.138	0.32	
414.575	0.31	
415.013	0.3	
415.45	0.29	
415.887	0.28	
416.324	0.27	
416.76	0.25	
417.197	0.24	
417.634	0.22	
418.071	0.22	
418.508	0.22	
418.944	0.2	
419.381	0.2	
419.818	0.19	
420.254	0.18	
420.691	0.16	
421.127	0.15	
421.563	0.14	
422	0.13	
422.436	0.13	
422.872	0.11	
423.309	0.11	
423.745	0.09	
424.181	0.08	
424.617	0.07	
425.053	0.05	
425.489	0.05	
425.925	0.05	
426.361	0.04	
426.797	0.03	
427.233	0.03	
427.668	0.03	
428.104	0	
428.54	-0	
428.975	-0.02	
429.411	-0.02	
429.847	-0.03	
430.282	-0.04	
430.717	-0.04	
431.153	-0.04	
431.588	-0.04	
432.024	-0.05	
432.459	-0.06	
432.894	-0.06	
433.329	-0.06	
433.764	-0.08	
434.199	-0.08	
434.634	-0.09	
435.069	-0.09	
435.504	-0.09	
435.939	-0.09	
436.374	-0.11	
436.809	-0.1	
437.244	-0.11	
437.678	-0.11	
438.113	-0.12	
438.548	-0.12	
438.982	-0.13	
439.417	-0.13	
439.851	-0.13	
440.286	-0.14	
440.72	-0.13	
441.154	-0.15	
441.589	-0.15	
442.023	-0.15	
442.457	-0.15	
442.891	-0.14	
443.326	-0.15	
443.76	-0.15	
444.194	-0.16	
444.628	-0.16	
445.062	-0.15	
445.495	-0.16	
445.929	-0.16	
446.363	-0.18	
446.797	-0.17	
447.23	-0.16	
447.664	-0.17	
448.098	-0.17	
448.531	-0.17	
448.965	-0.16	
449.398	-0.17	
449.832	-0.18	
450.265	-0.18	
450.698	-0.18	
451.132	-0.18	
451.565	-0.17	
451.998	-0.17	
452.431	-0.19	
452.864	-0.19	
453.297	-0.18	
453.73	-0.17	
454.163	-0.18	
454.596	-0.19	
455.029	-0.18	
455.462	-0.2	
455.895	-0.18	
456.327	-0.18	
456.76	-0.19	
457.193	-0.19	
457.625	-0.18	
458.058	-0.19	
458.49	-0.18	
458.923	-0.19	
459.355	-0.19	
459.787	-0.2	
460.22	-0.19	
460.652	-0.2	
461.084	-0.2	
461.516	-0.19	
461.948	-0.17	
462.381	-0.19	
462.813	-0.19	
463.245	-0.19	
463.676	-0.2	
464.108	-0.19	
464.54	-0.2	
464.972	-0.2	
465.404	-0.2	
465.835	-0.2	
466.267	-0.21	
466.699	-0.21	
467.13	-0.2	
467.562	-0.2	
467.993	-0.21	
468.424	-0.21	
468.856	-0.21	
469.287	-0.2	
469.718	-0.22	
470.15	-0.2	
470.581	-0.21	
471.012	-0.22	
471.443	-0.21	
471.874	-0.2	
472.305	-0.21	
472.736	-0.22	
473.167	-0.21	
473.598	-0.22	
474.028	-0.22	
474.459	-0.21	
474.89	-0.23	
475.32	-0.22	
475.751	-0.23	
476.182	-0.23	
476.612	-0.22	
477.043	-0.22	
477.473	-0.22	
477.903	-0.22	
478.334	-0.23	
478.764	-0.23	
479.194	-0.23	
479.624	-0.23	
480.054	-0.23	
480.484	-0.22	
480.914	-0.23	
481.344	-0.23	
481.774	-0.24	
482.204	-0.25	
482.634	-0.23	
483.064	-0.24	
483.494	-0.23	
483.923	-0.24	
484.353	-0.23	
484.782	-0.24	
485.212	-0.24	
485.642	-0.24	
486.071	-0.25	
486.5	-0.25	
486.93	-0.24	
487.359	-0.24	
487.788	-0.24	
488.217	-0.24	
488.647	-0.24	
489.076	-0.24	
489.505	-0.24	
489.934	-0.23	
490.363	-0.24	
490.792	-0.23	
491.221	-0.24	
491.649	-0.23	
492.078	-0.24	
492.507	-0.25	
492.936	-0.25	
493.364	-0.25	
493.793	-0.24	
494.221	-0.25	
494.65	-0.24	
495.078	-0.24	
495.507	-0.24	
495.935	-0.24	
496.363	-0.25	
496.791	-0.24	
497.22	-0.24	
497.648	-0.24	
498.076	-0.24	
498.504	-0.23	
498.932	-0.24	
499.36	-0.24	
499.788	-0.24	
500.216	-0.24	
500.643	-0.25	
501.071	-0.24	
501.499	-0.25	
501.927	-0.25	
502.354	-0.25	
502.782	-0.24	
503.209	-0.24	
503.637	-0.24	
504.064	-0.24	
504.491	-0.25	
504.919	-0.24	
505.346	-0.25	
505.773	-0.25	
506.2	-0.23	
506.628	-0.25	
507.055	-0.25	
507.482	-0.25	
507.909	-0.24	
508.335	-0.25	
508.762	-0.24	
509.189	-0.25	
509.616	-0.24	
510.043	-0.24	
510.469	-0.24	
510.896	-0.25	
511.323	-0.24	
511.749	-0.25	
512.176	-0.24	
512.602	-0.23	
513.028	-0.23	
513.455	-0.24	
513.881	-0.24	
514.307	-0.23	
514.733	-0.24	
515.16	-0.23	
515.586	-0.24	
516.012	-0.24	
516.438	-0.24	
516.864	-0.23	
517.29	-0.24	
517.715	-0.23	
518.141	-0.24	
518.567	-0.25	
518.993	-0.24	
519.418	-0.24	
519.844	-0.24	
520.269	-0.24	
520.695	-0.23	
521.12	-0.24	
521.546	-0.23	
521.971	-0.23	
522.396	-0.24	
522.822	-0.23	
523.247	-0.23	
523.672	-0.23	
524.097	-0.25	
524.522	-0.24	
524.947	-0.23	
525.372	-0.23	
525.797	-0.23	
526.222	-0.24	
526.647	-0.24	
527.071	-0.23	
527.496	-0.23	
527.921	-0.23	
528.345	-0.23	
528.77	-0.23	
529.194	-0.23	
529.619	-0.23	
530.043	-0.23	
530.468	-0.24	
530.892	-0.23	
531.316	-0.22	
531.74	-0.23	
532.164	-0.23	
532.589	-0.23	
533.013	-0.22	
533.437	-0.24	
533.861	-0.23	
534.284	-0.22	
534.708	-0.22	
535.132	-0.23	
535.556	-0.22	
535.98	-0.23	
536.403	-0.22	
536.827	-0.22	
537.25	-0.23	
537.674	-0.21	
538.097	-0.24	
538.521	-0.23	
538.944	-0.23	
539.367	-0.22	
539.791	-0.24	
540.214	-0.22	
540.637	-0.22	
541.06	-0.22	
541.483	-0.23	
541.906	-0.21	
542.329	-0.23	
542.752	-0.22	
543.175	-0.22	
543.598	-0.22	
544.02	-0.22	
544.443	-0.22	
544.866	-0.23	
545.288	-0.22	
545.711	-0.23	
546.133	-0.24	
546.556	-0.23	
546.978	-0.23	
547.4	-0.23	
547.823	-0.22	
548.245	-0.24	
548.667	-0.21	
549.089	-0.22	
549.511	-0.23	
549.933	-0.22	
550.355	-0.22	
550.777	-0.21	
551.199	-0.21	
551.621	-0.22	
552.043	-0.22	
552.465	-0.22	
552.886	-0.21	
553.308	-0.21	
553.729	-0.22	
554.151	-0.22	
554.572	-0.22	
554.994	-0.22	
555.415	-0.21	
555.837	-0.21	
556.258	-0.21	
556.679	-0.22	
557.1	-0.21	
557.521	-0.21	
557.942	-0.22	
558.363	-0.2	
558.784	-0.21	
559.205	-0.2	
559.626	-0.21	
560.047	-0.22	
560.468	-0.2	
560.888	-0.21	
561.309	-0.22	
561.73	-0.21	
562.15	-0.21	
562.571	-0.21	
562.991	-0.21	
563.412	-0.22	
563.832	-0.21	
564.252	-0.2	
564.673	-0.2	
565.093	-0.2	
565.513	-0.21	
565.933	-0.2	
566.353	-0.2	
566.773	-0.19	
567.193	-0.2	
567.613	-0.21	
568.033	-0.2	
568.452	-0.21	
568.872	-0.21	
569.292	-0.21	
569.711	-0.2	
570.131	-0.21	
570.551	-0.21	
570.97	-0.2	
571.389	-0.21	
571.809	-0.22	
572.228	-0.21	
572.647	-0.2	
573.067	-0.2	
573.486	-0.21	
573.905	-0.22	
574.324	-0.2	
574.743	-0.2	
575.162	-0.21	
575.581	-0.21	
576	-0.2	
576.419	-0.19	
576.837	-0.21	
577.256	-0.21	
577.675	-0.21	
578.093	-0.22	
578.512	-0.22	
578.93	-0.2	
579.349	-0.19	
579.767	-0.2	
580.185	-0.2	
580.604	-0.19	
581.022	-0.19	
581.44	-0.21	
581.858	-0.21	
582.276	-0.21	
582.694	-0.19	
583.112	-0.19	
583.53	-0.19	
583.948	-0.19	
584.366	-0.18	
584.784	-0.19	
585.201	-0.21	
585.619	-0.2	
586.037	-0.18	
586.454	-0.18	
586.872	-0.18	
587.289	-0.17	
587.707	-0.17	
588.124	-0.19	
588.541	-0.18	
588.958	-0.17	
589.376	-0.16	
589.793	-0.16	
590.21	-0.16	
590.627	-0.17	
591.044	-0.15	
591.461	-0.16	
591.878	-0.16	
592.294	-0.16	
592.711	-0.16	
593.128	-0.17	
593.545	-0.18	
593.961	-0.17	
594.378	-0.17	
594.794	-0.15	
595.211	-0.14	
595.627	-0.16	
596.043	-0.15	
596.46	-0.14	
596.876	-0.15	
597.292	-0.15	
597.708	-0.15	
598.124	-0.15	
598.54	-0.14	
598.956	-0.15	
599.372	-0.16	
599.788	-0.16	
600.204	-0.16	
600.62	-0.16	
601.035	-0.14	
601.451	-0.13	
601.867	-0.13	
602.282	-0.13	
602.698	-0.13	
603.113	-0.11	
603.529	-0.12	
603.944	-0.13	
604.359	-0.13	
604.774	-0.12	
605.19	-0.13	
605.605	-0.1	
606.02	-0.13	
606.435	-0.11	
606.85	-0.12	
607.265	-0.11	
607.68	-0.13	
608.094	-0.12	
608.509	-0.1	
608.924	-0.1	
609.338	-0.1	
609.753	-0.1	
610.168	-0.1	
610.582	-0.09	
610.997	-0.1	
611.411	-0.08	
611.825	-0.08	
612.24	-0.09	
612.654	-0.08	
613.068	-0.08	
613.482	-0.08	
613.896	-0.08	
614.31	-0.08	
614.724	-0.09	
615.138	-0.09	
615.552	-0.08	
615.966	-0.07	
616.379	-0.07	
616.793	-0.07	
617.207	-0.06	
617.62	-0.07	
618.034	-0.06	
618.447	-0.08	
618.861	-0.05	
619.274	-0.04	
619.687	-0.03	
620.101	-0.05	
620.514	-0.05	
620.927	-0.04	
621.34	-0.03	
621.753	-0.03	
622.166	-0.04	
622.579	-0.06	
622.992	-0.04	
623.405	-0.02	
623.817	-0.03	
624.23	-0.02	
624.643	-0.01	
625.055	-0.03	
625.468	-0.01	
625.88	-0.01	
626.293	-0	
626.705	-0.01	
627.118	-0.01	
627.53	-0.01	
627.942	-0.01	
628.354	-0.01	
628.766	0	
629.179	0.02	
629.591	0.02	
630.003	0.01	
630.414	0.01	
630.826	0.03	
631.238	0.04	
631.65	0.03	
632.061	0.03	
632.473	0.04	
632.885	0.05	
633.296	0.05	
633.708	0.04	
634.119	0.08	
634.53	0.07	
634.942	0.08	
635.353	0.04	
635.764	0.07	
636.175	0.06	
636.586	0.04	
636.998	0.03	
637.408	0.03	
637.819	0.06	
638.23	0.06	
638.641	0.07	
639.052	0.08	
639.463	0.09	
639.873	0.08	
640.284	0.09	
640.694	0.09	
641.105	0.09	
641.515	0.09	
641.926	0.12	
642.336	0.1	
642.746	0.1	
643.157	0.13	
643.567	0.1	
643.977	0.11	
644.387	0.1	
644.797	0.11	
645.207	0.11	
645.617	0.11	
646.026	0.11	
646.436	0.13	
646.846	0.11	
647.256	0.16	
647.665	0.12	
648.075	0.11	
648.484	0.09	
648.894	0.11	
649.303	0.09	
649.713	0.1	
650.122	0.13	
650.531	0.13	
650.94	0.14	
651.349	0.14	
651.758	0.14	
652.167	0.12	
652.576	0.14	
652.985	0.15	
653.394	0.14	
653.803	0.13	
654.212	0.12	
654.62	0.15	
655.029	0.14	
655.437	0.15	
655.846	0.07	
656.254	0.01	
656.663	0.04	
657.071	0.07	
657.479	0.1	
657.888	0.09	
658.296	0.1	
658.704	0.09	
659.112	0.09	
659.52	0.11	
659.928	0.15	
660.336	0.16	
660.744	0.13	
661.152	0.16	
661.559	0.16	
661.967	0.16	
662.375	0.17	
662.782	0.18	
663.19	0.16	
663.597	0.17	
664.005	0.2	
664.412	0.12	
664.819	0.16	
665.226	0.15	
665.634	0.14	
666.041	0.14	
666.448	0.17	
666.855	0.15	
667.262	0.16	
667.669	0.17	
668.075	0.19	
668.482	0.15	
668.889	0.16	
669.296	0.18	
669.702	0.15	
670.109	0.13	
670.515	0.16	
670.922	0.15	
671.328	0.15	
671.734	0.15	
672.141	0.14	
672.547	0.12	
672.953	0.15	
673.359	0.13	
673.765	0.14	
674.171	0.15	
674.577	0.16	
674.983	0.17	
675.389	0.16	
675.795	0.17	
676.201	0.14	
676.606	0.13	
677.012	0.15	
677.417	0.16	
677.823	0.17	
678.228	0.14	
678.634	0.15	
679.039	0.16	
679.444	0.15	
679.849	0.14	
680.255	0.13	
680.66	0.15	
681.065	0.15	
681.47	0.15	
681.875	0.15	
682.28	0.17	
682.684	0.15	
683.089	0.16	
683.494	0.17	
683.899	0.17	
684.303	0.15	
684.708	0.15	
685.112	0.15	
685.517	0.12	
685.921	0.15	
686.325	0.12	
686.729	0.13	
687.134	0.15	
687.538	0.15	
687.942	0.16	
688.346	0.15	
688.75	0.17	
689.154	0.17	
689.558	0.18	
689.961	0.16	
690.365	0.16	
690.769	0.19	
691.173	0.19	
691.576	0.14	
691.98	0.16	
692.383	0.16	
692.786	0.18	
693.19	0.15	
693.593	0.18	
693.996	0.19	
694.399	0.17	
694.803	0.18	
695.206	0.19	
695.609	0.17	
696.012	0.19	
696.414	0.19	
696.817	0.18	
697.22	0.16	
697.623	0.16	
698.025	0.15	
698.428	0.15	
698.831	0.19	
699.233	0.16	
699.636	0.17	
700.038	0.2	
700.44	0.21	
700.842	0.23	
701.245	0.24	
701.647	0.19	
702.049	0.21	
702.451	0.19	
702.853	0.2	
703.255	0.19	
703.657	0.18	
704.058	0.2	
704.46	0.18	
704.862	0.2	
705.264	0.2	
705.665	0.22	
706.067	0.22	
706.468	0.25	
706.869	0.19	
707.271	0.2	
707.672	0.16	
708.073	0.18	
708.474	0.19	
708.876	0.19	
709.277	0.17	
709.678	0.22	
710.079	0.2	
710.479	0.21	
710.88	0.18	
711.281	0.21	
711.682	0.23	
712.082	0.25	
712.483	0.22	
712.883	0.22	
713.284	0.23	
713.684	0.19	
714.085	0.2	
714.485	0.21	
714.885	0.21	
715.285	0.19	
715.686	0.22	
716.086	0.22	
716.486	0.24	
716.886	0.23	
717.285	0.21	
717.685	0.24	
718.085	0.24	
718.485	0.22	
718.884	0.2	
719.284	0.21	
719.684	0.23	
720.083	0.22	
720.483	0.25	
720.882	0.25	
721.281	0.2	
721.68	0.2	
722.08	0.23	
722.479	0.22	
722.878	0.22	
723.277	0.22	
723.676	0.23	
724.075	0.23	
724.474	0.24	
724.872	0.2	
725.271	0.21	
725.67	0.21	
726.068	0.19	
726.467	0.21	
726.865	0.2	
727.264	0.21	
727.662	0.22	
728.061	0.23	
728.459	0.19	
728.857	0.22	
729.255	0.19	
729.653	0.2	
730.051	0.2	
730.449	0.2	
730.847	0.19	
731.245	0.17	
731.643	0.2	
732.041	0.19	
732.438	0.21	
732.836	0.23	
733.233	0.18	
733.631	0.17	
734.028	0.17	
734.426	0.18	
734.823	0.17	
735.22	0.18	
735.617	0.19	
736.015	0.19	
736.412	0.19	
736.809	0.19	
737.206	0.21	
737.603	0.19	
737.999	0.2	
738.396	0.19	
738.793	0.19	
739.19	0.18	
739.586	0.17	
739.983	0.17	
740.379	0.18	
740.776	0.19	
741.172	0.2	
741.568	0.19	
741.965	0.21	
742.361	0.2	
742.757	0.21	
743.153	0.22	
743.549	0.22	
743.945	0.22	
744.341	0.21	
744.737	0.2	
745.133	0.2	
745.528	0.19	
745.924	0.24	
746.32	0.22	
746.715	0.22	
747.111	0.2	
747.506	0.21	
747.901	0.22	
748.297	0.21	
748.692	0.22	
749.087	0.24	
749.482	0.19	
749.877	0.22	
750.272	0.18	
750.667	0.18	
751.062	0.17	
751.457	0.2	
751.852	0.21	
752.247	0.22	
752.641	0.2	
753.036	0.18	
753.43	0.2	
753.825	0.18	
754.219	0.18	
754.614	0.14	
755.008	0.17	
755.402	0.16	
755.796	0.16	
756.19	0.16	
756.584	0.17	
756.978	0.15	
757.372	0.14	
757.766	0.13	
758.16	0.1	
758.554	0.14	
758.948	0.14	
759.341	0.15	
759.735	0.14	
760.128	0.14	
760.522	0.17	
760.915	0.14	
761.308	0.12	
761.702	0.13	
762.095	0.12	
762.488	0.12	
762.881	0.14	
763.274	0.15	
763.667	0.14	
764.06	0.16	
764.453	0.11	
764.846	0.11	
765.239	0.1	
765.631	0.12	
766.024	0.11	
766.416	0.13	
766.809	0.11	
767.201	0.16	
767.594	0.13	
767.986	0.15	
768.378	0.12	
768.77	0.13	
769.163	0.13	
769.555	0.1	
769.947	0.15	
770.339	0.13	
770.73	0.11	
771.122	0.11	
771.514	0.1	
771.906	0.15	
772.297	0.11	
772.689	0.12	
773.081	0.13	
773.472	0.12	
773.863	0.12	
774.255	0.14	
774.646	0.13	
775.037	0.14	
775.428	0.16	
775.82	0.12	
776.211	0.16	
776.602	0.13	
776.993	0.15	
777.383	0.14	
777.774	0.1	
778.165	0.13	
778.556	0.17	
778.946	0.12	
779.337	0.12	
779.727	0.14	
780.118	0.12	
780.508	0.12	
780.898	0.11	
781.289	0.09	
781.679	0.07	
782.069	0.06	
782.459	0.08	
782.849	0.07	
783.239	0.07	
783.629	0.11	
784.019	0.09	
784.408	0.11	
784.798	0.09	
785.188	0.07	
785.577	0.1	
785.967	0.07	
786.356	0.1	
786.746	0.07	
787.135	0.1	
787.524	0.06	
787.914	0.08	
788.303	0.05	
788.692	0.08	
789.081	0.05	
789.47	0.06	
789.859	0.06	
790.248	0.09	
790.636	0.08	
791.025	0.08	
791.414	0.06	
791.802	0.06	
792.191	0.05	
792.579	0.06	
792.968	0.05	
793.356	0.05	
793.744	0.02	
794.133	0.01	
794.521	0.01	
794.909	-0	
795.297	0.02	
795.685	0.04	
796.073	0.03	
796.461	0.05	
796.848	0.07	
797.236	0.05	
797.624	0.07	
798.011	0.07	
798.399	0.08	
798.787	0.06	
799.174	0.05	
799.561	0.06	
799.949	0.06	
800.336	0.08	
800.723	0.09	
801.11	0.07	
801.497	0.1	
801.884	0.07	
802.271	0.05	
802.658	0.05	
803.045	0.05	
803.432	0.07	
803.818	0.08	
804.205	0.09	
804.591	0.08	
804.978	0.08	
805.364	0.03	
805.751	0.05	
806.137	0.06	
806.523	0.03	
806.91	0.04	
807.296	0.04	
807.682	0.05	
808.068	0.06	
808.454	0.03	
808.84	0.04	
809.225	0.05	
809.611	0.06	
809.997	0.05	
810.382	0.02	
810.768	0.04	
811.153	0.02	
811.539	0.06	
811.924	0.06	
812.31	0.02	
812.695	0.07	
813.08	0.06	
813.465	0.03	
813.85	0.02	
814.235	0.01	
814.62	0	
815.005	0.01	
815.39	0.03	
815.775	0.03	
816.159	0.02	
816.544	0.02	
816.929	0.02	
817.313	0.03	
817.697	-0	
818.082	0.04	
818.466	0.03	
818.85	0.02	
819.235	0.04	
819.619	0.08	
820.003	0.01	
820.387	0.03	
820.771	0.01	
821.155	-0.02	
821.538	-0	
821.922	0.03	
822.306	0.01	
822.689	0.04	
823.073	0.02	
823.457	0	
823.84	0	
824.223	0.03	
824.607	-0.03	
824.99	0.03	
825.373	0.02	
825.756	0.01	
826.139	-0.02	
826.522	-0.02	
826.905	-0.01	
827.288	-0.01	
827.671	-0.06	
828.054	-0.03	
828.436	-0	
828.819	-0.01	
829.201	0.02	
829.584	-0.01	
829.966	-0	
830.349	0	
830.731	0.05	
831.113	0.01	
831.495	0.02	
831.878	0.02	
832.26	0.01	
832.642	-0.01	
833.024	-0.01	
833.405	0.03	
833.787	-0	
834.169	-0.01	
834.551	-0	
834.932	0.03	
835.314	0.03	
835.695	-0.01	
836.077	-0.02	
836.458	-0	
836.839	-0.01	
837.22	0.02	
837.602	0.01	
837.983	-0	
838.364	0.04	
838.745	0.03	
839.126	0.02	
839.506	0.02	
839.887	0.04	
840.268	0	
840.649	0.02	
841.029	-0.01	
841.41	-0.01	
841.79	-0.01	
842.171	-0	
842.551	-0.03	
842.931	-0.01	
843.311	-0.03	
843.691	-0.02	
844.072	-0.02	
844.452	0.02	
844.832	0.04	
845.211	0.01	
845.591	-0.02	
845.971	0.01	
846.351	-0.01	
846.73	0.01	
847.11	0.01	
847.489	-0.01	
847.869	-0.01	
848.248	0	
848.627	-0.02	
849.007	0.03	
849.386	-0.02	
849.765	0	
850.144	-0.01	
850.523	0.04	
850.902	0	
851.281	-0.02	
851.66	0.02	
852.038	0.01	
852.417	0	
852.796	-0.02	
853.174	-0.01	
853.553	-0.03	
853.931	-0	
854.309	-0.05	
854.688	0.01	
855.066	-0.04	
855.444	-0.01	
855.822	0.01	
856.2	-0.01	
856.578	-0.03	
856.956	-0.01	
857.334	-0.02	
857.712	-0.04	
858.089	-0.05	
858.467	-0.01	
858.844	-0.05	
859.222	-0.04	
859.599	-0.02	
859.977	-0	
860.354	-0.02	
860.731	-0.02	
861.109	-0.04	
861.486	-0.01	
861.863	-0.03	
862.24	-0.02	
862.617	-0.05	
862.993	0.01	
863.37	-0.03	
863.747	-0.01	
864.124	-0.04	
864.5	-0.03	
864.877	-0.01	
865.253	0.03	
865.63	-0.01	
866.006	-0.01	
866.382	-0	
866.758	-0	
867.135	0.03	
867.511	-0.02	
867.887	0.01	
868.263	0.01	
868.639	0.02	
869.014	-0.04	
869.39	-0.02	
869.766	-0.03	
870.141	-0	
870.517	-0.04	
870.892	-0	
871.268	-0.04	
871.643	-0.03	
872.019	-0.03	
872.394	-0.03	
872.769	-0.03	
873.144	-0.02	
873.519	-0.03	
873.894	-0.05	
874.269	-0.01	
874.644	-0.07	
875.019	-0.06	
875.393	-0.02	
875.768	-0.01	
876.143	-0.03	
876.517	-0.04	
876.891	-0.02	
877.266	-0.01	
877.64	-0.01	
878.014	-0.05	
878.389	-0.02	
878.763	-0.02	
879.137	-0.05	
879.511	-0.05	
879.885	-0.01	
880.259	-0.06	
880.632	-0.01	
881.006	-0.07	
881.38	-0.06	
881.753	-0.03	
882.127	-0.06	
882.5	-0.02	
882.874	-0.06	
883.247	-0.03	
883.62	-0.06	
883.994	-0.01	
884.367	-0.06	
884.74	-0.04	
885.113	-0.04	
885.486	-0.06	
885.859	-0.03	
886.231	-0.03	
886.604	-0.01	
886.977	-0.03	
887.349	-0.04	
887.722	-0.02	
888.094	-0.07	
888.467	-0.03	
888.839	-0.05	
889.211	-0.05	
889.584	-0.06	
889.956	-0.03	
890.328	-0.04	
890.7	0.01	
891.072	-0.02	
891.444	0	
891.816	-0.06	
892.187	-0.04	
892.559	-0.03	
892.931	-0.04	
893.302	-0.02	
893.674	0	
894.045	-0.06	
894.416	0.01	
894.788	-0.01	
895.159	-0.09	
895.53	-0.02	
895.901	-0.01	
896.272	-0	
896.643	-0.03	
897.014	-0.05	
897.385	-0.03	
897.756	-0.05	
898.126	-0.03	
898.497	-0.03	
898.867	0.05	
899.238	-0.05	
899.608	-0.08	
899.979	0.01	
900.349	-0.08	
900.719	-0.05	
901.089	-0.09	
901.459	-0.02	
901.829	-0.12	
902.199	-0.04	
902.569	-0.02	
902.939	-0.03	
903.309	-0.05	
903.679	0.03	
904.048	-0.07	
904.418	-0.02	
904.787	0.01	
905.157	-0.03	
905.526	-0.02	
905.895	-0.1	
906.265	-0.01	
906.634	-0.09	
907.003	-0.07	
907.372	-0.03	
907.741	-0.01	
908.11	0.02	
908.478	-0.04	
908.847	-0.01	
909.216	-0.03	
909.585	-0.01	
909.953	-0.08	
910.322	0.01	
910.69	-0.01	
911.058	0	
911.427	0	
911.795	0.03	
912.163	-0.01	
912.531	-0.07	
912.899	-0.03	
913.267	0.05	
913.635	0.06	
914.003	-0.04	
914.37	-0.07	
914.738	-0.04	
915.106	-0.05	
915.473	0.02	
915.841	-0.01	
916.208	0.04	
916.575	-0.03	
916.943	-0.12	
917.31	-0.09	
917.677	-0.02	
918.044	0.08	
918.411	-0	
918.778	0.06	
919.145	0.04	
919.512	0.04	
919.879	0.1	
920.245	0.02	
920.612	0.12	
920.978	0.07	
921.345	0.08	
921.711	0.04	
922.078	0.01	
922.444	-0.06	
922.81	0.07	
923.176	-0.02	
923.542	0.02	
923.908	0.09	
924.274	-0.04	
924.64	0.03	
925.006	0.07	
925.371	0.16	
925.737	-0.04	
926.103	-0.01	
926.468	0.02	
926.834	0.09	
927.199	0.01	
927.564	0.15	
927.93	0.05	
928.295	0.06	
928.66	0.02	
929.025	0.1	
929.39	0.14	
929.755	0.01	
930.12	0.09	
930.484	0.12	
930.849	0.06	
931.214	-0.16	
931.578	0.11	
931.943	0.04	
932.307	0.1	
932.672	0.03	
933.036	0.03	
933.4	0.1	
933.764	0.08	
934.128	0.1	
934.492	0.1	
934.856	0.01	
935.22	0.05	
935.584	0.05	
935.948	0.13	
936.311	0.01	
936.675	0.05	
937.039	0.09	
937.402	-0.17	
937.765	0.02	
938.129	0.27	
938.492	0.35	
938.855	0.16	
939.218	-0.08	
939.581	0.19	
939.944	0.02	
940.307	-0.04	
940.67	0.25	
941.033	0.17	
941.396	0.1	
941.758	0.13	
942.121	0.02	
942.483	0.08	
942.846	0.05	
943.208	-0.05	
943.571	0.06	
943.933	0.03	
944.295	0.02	
944.657	0.17	
945.019	0.09	
945.381	0.05	
945.743	0.09	
946.105	0.13	
946.467	-0.02	
946.828	0.15	
947.19	0.31	
947.551	-0.06	
947.913	0.11	
948.274	0.11	
948.636	0.05	
948.997	-0.12	
949.358	0.07	
949.719	0.19	
950.08	0.32	
950.441	0.06	
950.802	0.22	
951.163	0.18	
951.524	0.22	
951.885	0.41	
952.245	0.28	
952.606	0.1	
952.966	0.04	
953.327	-0.01	
953.687	0.3	
954.047	0.05	
954.408	-0.27	
954.768	0.32	
955.128	-0.02	
955.488	-0.11	
955.848	0.07	
956.208	-0.07	
956.568	0.16	
956.927	-0.09	
957.287	0.38	
957.647	0.12	
958.006	-0.04	
958.366	-0.02	
958.725	0.29	
959.084	0.03	
959.444	0.03	
959.803	0.4	
960.162	0.22	
960.521	0.19	
960.88	0.09	
961.239	-0.05	
961.598	0.38	
961.957	0.14	
962.315	0.2	
962.674	-0.07	
963.033	0.19	
963.391	-0.04	
963.75	0.14	
964.108	0.11	
964.466	0.35	
964.824	0.06	
965.183	0.2	
965.541	-0.85	
965.899	0	
966.257	-0.21	
966.614	0.86	
966.972	0.28	
967.33	0.15	
967.688	0.01	
968.045	-0.12	
968.403	-0	
968.76	0.51	
969.118	0.17	
969.475	0.18	
969.832	0.37	
970.189	0.05	
970.546	0.06	
970.903	-0.43	
971.26	0.33	
971.617	0.04	
971.974	-0.19	
972.331	0.82	
972.688	-0.02	
973.044	0.22	
973.401	-0.23	
973.757	-0	
974.114	0.44	
974.47	-0.62	
974.826	0.38	
975.182	0.12	
975.538	0.39	
975.895	0.15	
976.251	-0	
976.606	0.65	
976.962	-0.07	
977.318	-0.32	
977.674	0.16	
978.029	0.22	
978.385	0.15	
978.74	0.76	
979.096	-0	
979.451	-0.71	
979.806	0.45	
980.162	0.58	
980.517	-0.01	
980.872	-0	
981.227	-0.73	
981.582	0.47	
981.937	0.08	
982.291	-0	
982.646	-0.34	
983.001	0.67	
983.355	0.3	
983.71	-0.34	
984.064	-0.14	
984.419	-0.16	
984.773	0.23	
985.127	-0.14	
985.481	-0	
985.835	0.91	
986.189	-0	
986.543	-0.13	
986.897	-0.11	
987.251	-0.12	
987.605	0.22	
987.958	0.14	
988.312	-0.03	
988.665	-0.19	
989.019	-0.8	
989.372	0.87	
989.725	-0	
990.079	-0	
990.432	-0.29	
990.785	0.02	
991.138	-0.95	
991.491	0.46	
991.844	-0	
992.197	0.51	
992.549	0.71	
992.902	-0.58	
993.254	0.16	
993.607	-0	
993.959	-0.13	
994.312	-0.09	
994.664	0.04	
995.016	0.12	
995.368	0.14	
995.721	0.14	
996.073	-0.31	
996.425	0.84	
996.776	-0	
997.128	-0.18	
997.48	-0.33	
997.832	-0	
998.183	-0.31	
998.535	0.79	
998.886	-0.01	
999.237	0.01	
999.589	-0.22	
999.94	-0.09	
1000.291	-0.75	
1000.642	-0.35	
1000.993	0.27	
1001.344	-0.46	
1001.695	0.25	
1002.046	0.09	
1002.397	-0.04	
1002.747	-0	
1003.098	-0.01	
1003.448	-0	
1003.799	-0	
1004.149	0.59	
1004.499	0.11	
1004.85	-0	
1005.2	-0.42	
1005.55	-0.09	
1005.9	-0.29	
1006.25	-0.73	
1006.6	14.28	
1006.949	0.47	
1007.299	-0.12	
1007.649	0.35	
1007.998	-0	
1008.348	0.2	
1008.697	0.24	
1009.047	0.38	
1009.396	-0	
1009.745	-0	
1010.094	-0	
1010.443	-0.58	
1010.792	-0.52	
1011.141	0.09	
1011.49	0.49	
1011.839	0.15	
1012.188	0.25	
1012.536	0.08	
1012.885	-0.27	
1013.233	-0.37	
1013.582	-0	
1013.93	0.15	
1014.278	-0	
1014.627	-0.24	
1014.975	-0	
1015.323	-0.14	
1015.671	-1.45	
1016.019	-0	
1016.367	-0	
1016.714	-0.03	
1017.062	-0	
1017.41	-0	
1017.757	0.15	
1018.105	13.08	
1018.452	-0	
1018.8	1.4	
1019.147	-0.55	
1019.494	-0	
1019.841	0.18	
1020.188	-0.09	
1020.535	0.5	
1020.882	-0.3	
1021.229	-0.06	
1021.576	-0.38	
1021.922	0.02	
1022.269	0.07	
1022.615	-0.08	
1022.962	0.59	
1023.308	0.59	
1023.655	0.59	
